 #  Energy      k        eta    phase shift cross section  S factor 
 #  (MeV)    (fm^{-1})           (degrees)       (b)       (MeV b)  
   0.0100000  0.02868  4.13012  1.38411E-15  1.22440E-21  2.28033E-12
   0.0200000  0.04056  2.92044  4.66477E-12  2.05922E-18  3.83601E-12
   0.0300000  0.04968  2.38453  2.06974E-10  6.07931E-17  5.85810E-12
   0.0400000  0.05736  2.06506  2.21021E-09  4.86013E-16  8.38968E-12
   0.0500000  0.06414  1.84705  1.19137E-08  2.09210E-15  1.14731E-11
   0.0600000  0.07026  1.68611  4.33227E-08  6.32819E-15  1.51503E-11
   0.0700000  0.07589  1.56104  1.22339E-07  1.52899E-14  1.94622E-11
   0.0800000  0.08113  1.46022  2.90084E-07  3.16672E-14  2.44496E-11
   0.0900000  0.08605  1.37671  6.05645E-07  5.86669E-14  3.01528E-11
   0.1000000  0.09070  1.30606  1.14825E-06  9.99319E-14  3.66113E-11
   0.1100000  0.09513  1.24528  2.01897E-06  1.59465E-13  4.38644E-11
   0.1200000  0.09936  1.19226  3.34207E-06  2.41559E-13  5.19512E-11
   0.1300000  0.10341  1.14549  5.26593E-06  3.50743E-13  6.09100E-11
   0.1400000  0.10732  1.10382  7.96377E-06  4.91726E-13  7.07791E-11
   0.1500000  0.11109  1.06639  1.16342E-05  6.69358E-13  8.15963E-11
   0.1600000  0.11473  1.03253  1.65015E-05  8.88594E-13  9.33990E-11
   0.1700000  0.11826  1.00170  2.28159E-05  1.15447E-12  1.06225E-10
   0.1800000  0.12169  0.97348  3.08534E-05  1.47205E-12  1.20110E-10
   0.1900000  0.12502  0.94751  4.09163E-05  1.84647E-12  1.35091E-10
   0.2000000  0.12827  0.92352  5.33326E-05  2.28282E-12  1.51206E-10
   0.2100000  0.13144  0.90127  6.84560E-05  2.78625E-12  1.68489E-10
   0.2200000  0.13453  0.88054  8.66729E-05  3.36183E-12  1.86976E-10
   0.2300000  0.13755  0.86119  1.08387E-04  4.01466E-12  2.06704E-10
   0.2400000  0.14051  0.84306  1.34002E-04  4.74977E-12  2.27708E-10
   0.2500000  0.14341  0.82602  1.64025E-04  5.57216E-12  2.50022E-10
   0.2600000  0.14625  0.80998  1.98869E-04  6.48680E-12  2.73683E-10
   0.2700000  0.14904  0.79484  2.39119E-04  7.49857E-12  2.98723E-10
   0.2800000  0.15177  0.78052  2.85207E-04  8.61233E-12  3.25179E-10
   0.2900000  0.15446  0.76694  3.37731E-04  9.83287E-12  3.53085E-10
   0.3000000  0.15710  0.75405  3.97266E-04  1.11649E-11  3.82474E-10
   0.3100000  0.15970  0.74179  4.64482E-04  1.26131E-11  4.13380E-10
   0.3200000  0.16225  0.73011  5.39855E-04  1.41821E-11  4.45839E-10
   0.3300000  0.16477  0.71896  6.24101E-04  1.58764E-11  4.79882E-10
   0.3400000  0.16724  0.70831  7.17878E-04  1.77005E-11  5.15544E-10
   0.3500000  0.16969  0.69812  8.21990E-04  1.96587E-11  5.52859E-10
   0.3600000  0.17209  0.68835  9.36921E-04  2.17555E-11  5.91859E-10
   0.3700000  0.17447  0.67899  1.06350E-03  2.39951E-11  6.32577E-10
   0.3800000  0.17681  0.66999  1.20250E-03  2.63817E-11  6.75047E-10
   0.3900000  0.17912  0.66135  1.35466E-03  2.89195E-11  7.19302E-10
   0.4000000  0.18140  0.65303  1.52098E-03  3.16124E-11  7.65373E-10
   0.4100000  0.18365  0.64502  1.70189E-03  3.44647E-11  8.13295E-10
   0.4200000  0.18588  0.63729  1.89841E-03  3.74801E-11  8.63099E-10
   0.4300000  0.18808  0.62984  2.11138E-03  4.06627E-11  9.14818E-10
   0.4400000  0.19026  0.62264  2.34166E-03  4.40162E-11  9.68484E-10
   0.4500000  0.19241  0.61568  2.59044E-03  4.75444E-11  1.02413E-09
   0.4600000  0.19453  0.60895  2.85807E-03  5.12510E-11  1.08179E-09
   0.4700000  0.19663  0.60244  3.14571E-03  5.51398E-11  1.14149E-09
   0.4800000  0.19872  0.59613  3.45434E-03  5.92142E-11  1.20327E-09
   0.4900000  0.20077  0.59002  3.78489E-03  6.34779E-11  1.26715E-09
   0.5000000  0.20281  0.58409  4.13836E-03  6.79344E-11  1.33318E-09
   0.5100000  0.20483  0.57833  4.51575E-03  7.25870E-11  1.40138E-09
   0.5200000  0.20683  0.57274  4.91803E-03  7.74393E-11  1.47178E-09
   0.5300000  0.20881  0.56732  5.34625E-03  8.24945E-11  1.54442E-09
   0.5400000  0.21077  0.56204  5.80148E-03  8.77560E-11  1.61932E-09
   0.5500000  0.21271  0.55691  6.28477E-03  9.32270E-11  1.69653E-09
   0.5600000  0.21464  0.55191  6.79775E-03  9.89107E-11  1.77606E-09
   0.5700000  0.21654  0.54705  7.34039E-03  1.04810E-10  1.85796E-09
   0.5800000  0.21844  0.54231  7.91438E-03  1.10929E-10  1.94226E-09
   0.5900000  0.22031  0.53770  8.52079E-03  1.17270E-10  2.02898E-09
   0.6000000  0.22217  0.53320  9.16083E-03  1.23836E-10  2.11815E-09
   0.6100000  0.22401  0.52881  9.83576E-03  1.30630E-10  2.20982E-09
   0.6200000  0.22584  0.52453  1.05465E-02  1.37655E-10  2.30401E-09
   0.6300000  0.22766  0.52035  1.12944E-02  1.44914E-10  2.40076E-09
   0.6400000  0.22946  0.51626  1.20806E-02  1.52411E-10  2.50009E-09
   0.6500000  0.23124  0.51228  1.29073E-02  1.60147E-10  2.60203E-09
   0.6600000  0.23301  0.50838  1.37739E-02  1.68126E-10  2.70663E-09
   0.6700000  0.23477  0.50457  1.46826E-02  1.76350E-10  2.81391E-09
   0.6800000  0.23652  0.50085  1.56345E-02  1.84823E-10  2.92390E-09
   0.6900000  0.23825  0.49721  1.66310E-02  1.93547E-10  3.03663E-09
   0.7000000  0.23997  0.49364  1.76734E-02  2.02524E-10  3.15215E-09
   0.7100000  0.24168  0.49016  1.87630E-02  2.11758E-10  3.27047E-09
   0.7200000  0.24338  0.48674  1.99011E-02  2.21251E-10  3.39163E-09
   0.7300000  0.24506  0.48339  2.10890E-02  2.31006E-10  3.51567E-09
   0.7400000  0.24673  0.48012  2.23281E-02  2.41025E-10  3.64262E-09
   0.7500000  0.24839  0.47691  2.36198E-02  2.51312E-10  3.77251E-09
   0.7600000  0.25004  0.47376  2.49655E-02  2.61868E-10  3.90537E-09
   0.7700000  0.25168  0.47067  2.63665E-02  2.72696E-10  4.04123E-09
   0.7800000  0.25331  0.46764  2.78244E-02  2.83799E-10  4.18013E-09
   0.7900000  0.25493  0.46467  2.93404E-02  2.95179E-10  4.32210E-09
   0.8000000  0.25654  0.46176  3.09160E-02  3.06839E-10  4.46718E-09
   0.8100000  0.25814  0.45890  3.25528E-02  3.18781E-10  4.61539E-09
   0.8200000  0.25973  0.45610  3.42521E-02  3.31008E-10  4.76677E-09
   0.8300000  0.26131  0.45334  3.60155E-02  3.43523E-10  4.92136E-09
   0.8400000  0.26288  0.45063  3.78444E-02  3.56327E-10  5.07919E-09
   0.8500000  0.26444  0.44797  3.97425E-02  3.69423E-10  5.24028E-09
   0.8600000  0.26599  0.44536  4.17072E-02  3.82815E-10  5.40468E-09
   0.8700000  0.26753  0.44280  4.37419E-02  3.96503E-10  5.57243E-09
   0.8800000  0.26906  0.44027  4.58483E-02  4.10490E-10  5.74354E-09
   0.8900000  0.27059  0.43779  4.80280E-02  4.24780E-10  5.91807E-09
   0.9000000  0.27210  0.43535  5.02827E-02  4.39374E-10  6.09603E-09
   0.9100000  0.27361  0.43295  5.26138E-02  4.54275E-10  6.27748E-09
   0.9200000  0.27511  0.43059  5.50229E-02  4.69485E-10  6.46244E-09
   0.9300000  0.27660  0.42827  5.75117E-02  4.85007E-10  6.65095E-09
   0.9400000  0.27808  0.42599  6.00820E-02  5.00843E-10  6.84304E-09
   0.9500000  0.27956  0.42374  6.27357E-02  5.16995E-10  7.03875E-09
   0.9600000  0.28103  0.42153  6.54737E-02  5.33467E-10  7.23812E-09
   0.9700000  0.28249  0.41935  6.82982E-02  5.50259E-10  7.44118E-09
   0.9800000  0.28394  0.41721  7.12107E-02  5.67375E-10  7.64797E-09
   0.9900000  0.28538  0.41509  7.42133E-02  5.84818E-10  7.85852E-09
   1.0000000  0.28682  0.41301  7.73073E-02  6.02589E-10  8.07288E-09
   1.0100000  0.28825  0.41096  8.04948E-02  6.20691E-10  8.29108E-09
   1.0200000  0.28967  0.40894  8.37773E-02  6.39126E-10  8.51315E-09
   1.0300000  0.29109  0.40695  8.71569E-02  6.57897E-10  8.73914E-09
   1.0400000  0.29250  0.40499  9.06350E-02  6.77006E-10  8.96908E-09
   1.0500000  0.29390  0.40306  9.42140E-02  6.96456E-10  9.20301E-09
   1.0600000  0.29530  0.40115  9.78951E-02  7.16250E-10  9.44097E-09
   1.0700000  0.29669  0.39927  1.01681E-01  7.36389E-10  9.68301E-09
   1.0800000  0.29807  0.39742  1.05572E-01  7.56876E-10  9.92915E-09
   1.0900000  0.29945  0.39559  1.09577E-01  7.77714E-10  1.01794E-08
   1.1000000  0.30082  0.39379  1.13686E-01  7.98905E-10  1.04339E-08
   1.1100000  0.30218  0.39201  1.17908E-01  8.20452E-10  1.06926E-08
   1.1200000  0.30354  0.39026  1.22243E-01  8.42356E-10  1.09556E-08
   1.1300000  0.30489  0.38853  1.26695E-01  8.64622E-10  1.12229E-08
   1.1400000  0.30624  0.38682  1.31264E-01  8.87251E-10  1.14945E-08
   1.1500000  0.30758  0.38514  1.35953E-01  9.10246E-10  1.17705E-08
   1.1600000  0.30892  0.38347  1.40763E-01  9.33610E-10  1.20510E-08
   1.1700000  0.31024  0.38183  1.45697E-01  9.57345E-10  1.23360E-08
   1.1800000  0.31157  0.38021  1.50758E-01  9.81453E-10  1.26254E-08
   1.1900000  0.31288  0.37861  1.55946E-01  1.00594E-09  1.29195E-08
   1.2000000  0.31420  0.37703  1.61265E-01  1.03080E-09  1.32181E-08
   1.2100000  0.31550  0.37547  1.66715E-01  1.05605E-09  1.35214E-08
   1.2200000  0.31680  0.37392  1.72301E-01  1.08168E-09  1.38294E-08
   1.2300000  0.31810  0.37240  1.78022E-01  1.10770E-09  1.41421E-08
   1.2400000  0.31939  0.37090  1.83883E-01  1.13411E-09  1.44596E-08
   1.2500000  0.32068  0.36941  1.89884E-01  1.16091E-09  1.47820E-08
   1.2600000  0.32196  0.36794  1.96028E-01  1.18810E-09  1.51093E-08
   1.2700000  0.32323  0.36649  2.02318E-01  1.21570E-09  1.54414E-08
   1.2800000  0.32450  0.36505  2.08756E-01  1.24370E-09  1.57786E-08
   1.2900000  0.32577  0.36364  2.15343E-01  1.27210E-09  1.61207E-08
   1.3000000  0.32703  0.36224  2.22083E-01  1.30091E-09  1.64680E-08
   1.3100000  0.32828  0.36085  2.28977E-01  1.33013E-09  1.68204E-08
   1.3200000  0.32953  0.35948  2.36029E-01  1.35976E-09  1.71779E-08
   1.3300000  0.33078  0.35813  2.43240E-01  1.38981E-09  1.75407E-08
   1.3400000  0.33202  0.35679  2.50613E-01  1.42028E-09  1.79087E-08
   1.3500000  0.33326  0.35546  2.58150E-01  1.45117E-09  1.82821E-08
   1.3600000  0.33449  0.35415  2.65853E-01  1.48249E-09  1.86608E-08
   1.3700000  0.33572  0.35286  2.73726E-01  1.51424E-09  1.90450E-08
   1.3800000  0.33694  0.35158  2.81771E-01  1.54642E-09  1.94347E-08
   1.3900000  0.33816  0.35031  2.89989E-01  1.57903E-09  1.98299E-08
   1.4000000  0.33937  0.34906  2.98385E-01  1.61208E-09  2.02307E-08
   1.4100000  0.34058  0.34782  3.06960E-01  1.64558E-09  2.06372E-08
   1.4200000  0.34179  0.34659  3.15717E-01  1.67952E-09  2.10493E-08
   1.4300000  0.34299  0.34538  3.24660E-01  1.71391E-09  2.14672E-08
   1.4400000  0.34418  0.34418  3.33789E-01  1.74876E-09  2.18910E-08
   1.4500000  0.34538  0.34299  3.43108E-01  1.78406E-09  2.23206E-08
   1.4600000  0.34657  0.34181  3.52621E-01  1.81982E-09  2.27561E-08
   1.4700000  0.34775  0.34065  3.62329E-01  1.85604E-09  2.31977E-08
   1.4800000  0.34893  0.33949  3.72235E-01  1.89273E-09  2.36453E-08
   1.4900000  0.35011  0.33835  3.82343E-01  1.92989E-09  2.40991E-08
   1.5000000  0.35128  0.33722  3.92655E-01  1.96753E-09  2.45590E-08
   1.5100000  0.35245  0.33610  4.03174E-01  2.00564E-09  2.50251E-08
   1.5200000  0.35362  0.33500  4.13903E-01  2.04424E-09  2.54976E-08
   1.5300000  0.35478  0.33390  4.24845E-01  2.08333E-09  2.59765E-08
   1.5400000  0.35594  0.33281  4.36003E-01  2.12290E-09  2.64618E-08
   1.5500000  0.35709  0.33174  4.47380E-01  2.16297E-09  2.69536E-08
   1.5600000  0.35824  0.33067  4.58979E-01  2.20354E-09  2.74519E-08
   1.5700000  0.35939  0.32962  4.70804E-01  2.24461E-09  2.79570E-08
   1.5800000  0.36053  0.32857  4.82856E-01  2.28619E-09  2.84687E-08
   1.5900000  0.36167  0.32754  4.95141E-01  2.32828E-09  2.89872E-08
   1.6000000  0.36280  0.32651  5.07660E-01  2.37088E-09  2.95126E-08
   1.6100000  0.36393  0.32550  5.20417E-01  2.41401E-09  3.00449E-08
   1.6200000  0.36506  0.32449  5.33416E-01  2.45766E-09  3.05842E-08
   1.6300000  0.36619  0.32350  5.46659E-01  2.50184E-09  3.11306E-08
   1.6400000  0.36731  0.32251  5.60150E-01  2.54656E-09  3.16841E-08
   1.6500000  0.36843  0.32153  5.73894E-01  2.59181E-09  3.22449E-08
   1.6600000  0.36954  0.32056  5.87891E-01  2.63761E-09  3.28130E-08
   1.6700000  0.37065  0.31960  6.02156E-01  2.68396E-09  3.33885E-08
   1.6800000  0.37176  0.31865  6.16674E-01  2.73086E-09  3.39714E-08
   1.6900000  0.37287  0.31770  6.31459E-01  2.77832E-09  3.45619E-08
   1.7000000  0.37397  0.31677  6.46513E-01  2.82634E-09  3.51600E-08
   1.7100000  0.37507  0.31584  6.61839E-01  2.87494E-09  3.57659E-08
   1.7200000  0.37616  0.31492  6.77443E-01  2.92411E-09  3.63795E-08
   1.7300000  0.37725  0.31401  6.93327E-01  2.97385E-09  3.70010E-08
   1.7400000  0.37834  0.31310  7.09495E-01  3.02419E-09  3.76305E-08
   1.7500000  0.37943  0.31221  7.25952E-01  3.07512E-09  3.82681E-08
   1.7600000  0.38051  0.31132  7.42703E-01  3.12664E-09  3.89139E-08
   1.7700000  0.38159  0.31044  7.59748E-01  3.17877E-09  3.95679E-08
   1.7800000  0.38267  0.30957  7.77095E-01  3.23150E-09  4.02302E-08
   1.7900000  0.38374  0.30870  7.94746E-01  3.28485E-09  4.09010E-08
   1.8000000  0.38481  0.30784  8.12706E-01  3.33882E-09  4.15803E-08
   1.8100000  0.38588  0.30699  8.30978E-01  3.39342E-09  4.22682E-08
   1.8200000  0.38694  0.30614  8.49568E-01  3.44865E-09  4.29649E-08
   1.8300000  0.38800  0.30531  8.68480E-01  3.50452E-09  4.36705E-08
   1.8400000  0.38906  0.30448  8.87717E-01  3.56104E-09  4.43850E-08
   1.8500000  0.39012  0.30365  9.07285E-01  3.61821E-09  4.51085E-08
   1.8600000  0.39117  0.30284  9.27188E-01  3.67605E-09  4.58412E-08
   1.8700000  0.39222  0.30202  9.47434E-01  3.73454E-09  4.65831E-08
   1.8800000  0.39327  0.30122  9.68025E-01  3.79372E-09  4.73345E-08
   1.8900000  0.39431  0.30042  9.88965E-01  3.85357E-09  4.80953E-08
   1.9000000  0.39536  0.29963  1.01026E+00  3.91411E-09  4.88657E-08
   1.9100000  0.39639  0.29884  1.03191E+00  3.97535E-09  4.96459E-08
   1.9200000  0.39743  0.29807  1.05393E+00  4.03730E-09  5.04359E-08
   1.9300000  0.39846  0.29729  1.07631E+00  4.09995E-09  5.12358E-08
   1.9400000  0.39950  0.29653  1.09907E+00  4.16332E-09  5.20458E-08
   1.9500000  0.40052  0.29576  1.12221E+00  4.22742E-09  5.28661E-08
   1.9600000  0.40155  0.29501  1.14574E+00  4.29226E-09  5.36966E-08
   1.9700000  0.40257  0.29426  1.16965E+00  4.35784E-09  5.45377E-08
   1.9800000  0.40359  0.29351  1.19396E+00  4.42417E-09  5.53893E-08
   1.9900000  0.40461  0.29278  1.21867E+00  4.49126E-09  5.62517E-08
   2.0000000  0.40563  0.29204  1.24378E+00  4.55912E-09  5.71249E-08
   2.0100000  0.40664  0.29132  1.26931E+00  4.62776E-09  5.80092E-08
   2.0200000  0.40765  0.29059  1.29525E+00  4.69719E-09  5.89046E-08
   2.0300000  0.40866  0.28988  1.32162E+00  4.76741E-09  5.98112E-08
   2.0400000  0.40966  0.28917  1.34842E+00  4.83844E-09  6.07294E-08
   2.0500000  0.41066  0.28846  1.37566E+00  4.91029E-09  6.16591E-08
   2.0600000  0.41167  0.28776  1.40333E+00  4.98296E-09  6.26005E-08
   2.0700000  0.41266  0.28706  1.43146E+00  5.05647E-09  6.35539E-08
   2.0800000  0.41366  0.28637  1.46004E+00  5.13082E-09  6.45193E-08
   2.0900000  0.41465  0.28569  1.48908E+00  5.20603E-09  6.54969E-08
   2.1000000  0.41564  0.28501  1.51859E+00  5.28211E-09  6.64869E-08
   2.1100000  0.41663  0.28433  1.54857E+00  5.35907E-09  6.74894E-08
   2.1200000  0.41762  0.28366  1.57903E+00  5.43691E-09  6.85047E-08
   2.1300000  0.41860  0.28299  1.60998E+00  5.51566E-09  6.95328E-08
   2.1400000  0.41958  0.28233  1.64143E+00  5.59532E-09  7.05740E-08
   2.1500000  0.42056  0.28167  1.67337E+00  5.67590E-09  7.16285E-08
   2.1600000  0.42154  0.28102  1.70583E+00  5.75742E-09  7.26964E-08
   2.1700000  0.42251  0.28037  1.73880E+00  5.83988E-09  7.37779E-08
   2.1800000  0.42349  0.27973  1.77230E+00  5.92331E-09  7.48732E-08
   2.1900000  0.42446  0.27909  1.80633E+00  6.00771E-09  7.59825E-08
   2.2000000  0.42542  0.27845  1.84090E+00  6.09309E-09  7.71061E-08
   2.2100000  0.42639  0.27782  1.87602E+00  6.17947E-09  7.82440E-08
   2.2200000  0.42735  0.27720  1.91169E+00  6.26687E-09  7.93966E-08
   2.2300000  0.42831  0.27657  1.94792E+00  6.35530E-09  8.05639E-08
   2.2400000  0.42927  0.27596  1.98473E+00  6.44476E-09  8.17464E-08
   2.2500000  0.43023  0.27534  2.02212E+00  6.53528E-09  8.29440E-08
   2.2600000  0.43119  0.27473  2.06010E+00  6.62687E-09  8.41572E-08
   2.2700000  0.43214  0.27413  2.09867E+00  6.71955E-09  8.53860E-08
   2.2800000  0.43309  0.27352  2.13785E+00  6.81332E-09  8.66309E-08
   2.2900000  0.43404  0.27293  2.17765E+00  6.90821E-09  8.78919E-08
   2.3000000  0.43499  0.27233  2.21807E+00  7.00423E-09  8.91693E-08
   2.3100000  0.43593  0.27174  2.25913E+00  7.10140E-09  9.04634E-08
   2.3200000  0.43687  0.27116  2.30083E+00  7.19974E-09  9.17744E-08
   2.3300000  0.43781  0.27057  2.34319E+00  7.29926E-09  9.31026E-08
   2.3400000  0.43875  0.26999  2.38621E+00  7.39997E-09  9.44483E-08
   2.3500000  0.43969  0.26942  2.42990E+00  7.50191E-09  9.58116E-08
   2.3600000  0.44062  0.26885  2.47428E+00  7.60508E-09  9.71930E-08
   2.3700000  0.44156  0.26828  2.51935E+00  7.70950E-09  9.85927E-08
   2.3800000  0.44249  0.26772  2.56513E+00  7.81519E-09  1.00011E-07
   2.3900000  0.44341  0.26716  2.61163E+00  7.92218E-09  1.01448E-07
   2.4000000  0.44434  0.26660  2.65886E+00  8.03048E-09  1.02904E-07
   2.4100000  0.44527  0.26604  2.70682E+00  8.14011E-09  1.04380E-07
   2.4200000  0.44619  0.26549  2.75554E+00  8.25109E-09  1.05875E-07
   2.4300000  0.44711  0.26495  2.80501E+00  8.36345E-09  1.07391E-07
   2.4400000  0.44803  0.26440  2.85527E+00  8.47720E-09  1.08927E-07
   2.4500000  0.44895  0.26386  2.90631E+00  8.59237E-09  1.10484E-07
   2.4600000  0.44986  0.26333  2.95815E+00  8.70898E-09  1.12061E-07
   2.4700000  0.45077  0.26279  3.01080E+00  8.82706E-09  1.13661E-07
   2.4800000  0.45169  0.26226  3.06428E+00  8.94662E-09  1.15282E-07
   2.4900000  0.45260  0.26174  3.11860E+00  9.06769E-09  1.16925E-07
   2.5000000  0.45350  0.26121  3.17377E+00  9.19030E-09  1.18591E-07
   2.5100000  0.45441  0.26069  3.22981E+00  9.31446E-09  1.20280E-07
   2.5200000  0.45531  0.26017  3.28673E+00  9.44022E-09  1.21992E-07
   2.5300000  0.45622  0.25966  3.34455E+00  9.56759E-09  1.23728E-07
   2.5400000  0.45712  0.25915  3.40327E+00  9.69660E-09  1.25487E-07
   2.5500000  0.45802  0.25864  3.46293E+00  9.82727E-09  1.27272E-07
   2.5600000  0.45891  0.25813  3.52352E+00  9.95965E-09  1.29081E-07
   2.5700000  0.45981  0.25763  3.58507E+00  1.00937E-08  1.30916E-07
   2.5800000  0.46070  0.25713  3.64759E+00  1.02296E-08  1.32777E-07
   2.5900000  0.46159  0.25663  3.71110E+00  1.03672E-08  1.34664E-07
   2.6000000  0.46248  0.25614  3.77561E+00  1.05067E-08  1.36578E-07
   2.6100000  0.46337  0.25565  3.84115E+00  1.06480E-08  1.38519E-07
   2.6200000  0.46426  0.25516  3.90772E+00  1.07912E-08  1.40488E-07
   2.6300000  0.46515  0.25467  3.97536E+00  1.09363E-08  1.42485E-07
   2.6400000  0.46603  0.25419  4.04407E+00  1.10834E-08  1.44511E-07
   2.6500000  0.46691  0.25371  4.11388E+00  1.12324E-08  1.46566E-07
   2.6600000  0.46779  0.25323  4.18480E+00  1.13834E-08  1.48651E-07
   2.6700000  0.46867  0.25276  4.25685E+00  1.15366E-08  1.50767E-07
   2.6800000  0.46955  0.25229  4.33006E+00  1.16918E-08  1.52913E-07
   2.6900000  0.47042  0.25182  4.40444E+00  1.18491E-08  1.55091E-07
   2.7000000  0.47129  0.25135  4.48002E+00  1.20086E-08  1.57301E-07
   2.7100000  0.47217  0.25089  4.55681E+00  1.21704E-08  1.59544E-07
   2.7200000  0.47304  0.25043  4.63484E+00  1.23343E-08  1.61821E-07
   2.7300000  0.47391  0.24997  4.71414E+00  1.25006E-08  1.64131E-07
   2.7400000  0.47477  0.24951  4.79471E+00  1.26693E-08  1.66476E-07
   2.7500000  0.47564  0.24906  4.87659E+00  1.28403E-08  1.68856E-07
   2.7600000  0.47650  0.24860  4.95980E+00  1.30137E-08  1.71273E-07
   2.7700000  0.47736  0.24815  5.04437E+00  1.31896E-08  1.73726E-07
   2.7800000  0.47823  0.24771  5.13032E+00  1.33681E-08  1.76217E-07
   2.7900000  0.47909  0.24726  5.21767E+00  1.35491E-08  1.78746E-07
   2.8000000  0.47994  0.24682  5.30645E+00  1.37328E-08  1.81314E-07
   2.8100000  0.48080  0.24638  5.39670E+00  1.39191E-08  1.83922E-07
   2.8200000  0.48165  0.24595  5.48842E+00  1.41082E-08  1.86571E-07
   2.8300000  0.48251  0.24551  5.58167E+00  1.43000E-08  1.89260E-07
   2.8400000  0.48336  0.24508  5.67646E+00  1.44947E-08  1.91993E-07
   2.8500000  0.48421  0.24465  5.77282E+00  1.46923E-08  1.94768E-07
   2.8600000  0.48506  0.24422  5.87078E+00  1.48929E-08  1.97587E-07
   2.8700000  0.48591  0.24379  5.97038E+00  1.50965E-08  2.00452E-07
   2.8800000  0.48675  0.24337  6.07164E+00  1.53032E-08  2.03362E-07
   2.8900000  0.48760  0.24295  6.17461E+00  1.55130E-08  2.06319E-07
   2.9000000  0.48844  0.24253  6.27930E+00  1.57260E-08  2.09324E-07
   2.9100000  0.48928  0.24211  6.38576E+00  1.59423E-08  2.12377E-07
   2.9200000  0.49012  0.24170  6.49403E+00  1.61620E-08  2.15481E-07
   2.9300000  0.49096  0.24128  6.60413E+00  1.63851E-08  2.18636E-07
   2.9400000  0.49180  0.24087  6.71611E+00  1.66117E-08  2.21842E-07
   2.9500000  0.49263  0.24046  6.83000E+00  1.68418E-08  2.25102E-07
   2.9600000  0.49347  0.24006  6.94584E+00  1.70756E-08  2.28417E-07
   2.9700000  0.49430  0.23965  7.06367E+00  1.73131E-08  2.31786E-07
   2.9800000  0.49513  0.23925  7.18354E+00  1.75544E-08  2.35213E-07
   2.9900000  0.49596  0.23885  7.30548E+00  1.77997E-08  2.38698E-07
   3.0000000  0.49679  0.23845  7.42954E+00  1.80488E-08  2.42241E-07
   3.0100000  0.49762  0.23806  7.55576E+00  1.83021E-08  2.45846E-07
   3.0200000  0.49844  0.23766  7.68418E+00  1.85595E-08  2.49513E-07
   3.0300000  0.49927  0.23727  7.81486E+00  1.88211E-08  2.53243E-07
   3.0400000  0.50009  0.23688  7.94785E+00  1.90871E-08  2.57038E-07
   3.0500000  0.50091  0.23649  8.08318E+00  1.93575E-08  2.60899E-07
   3.0600000  0.50173  0.23610  8.22092E+00  1.96325E-08  2.64828E-07
   3.0700000  0.50255  0.23572  8.36111E+00  1.99120E-08  2.68826E-07
   3.0800000  0.50337  0.23534  8.50381E+00  2.01964E-08  2.72895E-07
   3.0900000  0.50418  0.23495  8.64907E+00  2.04856E-08  2.77037E-07
   3.1000000  0.50500  0.23458  8.79695E+00  2.07797E-08  2.81254E-07
   3.1100000  0.50581  0.23420  8.94750E+00  2.10789E-08  2.85546E-07
   3.1200000  0.50663  0.23382  9.10079E+00  2.13834E-08  2.89916E-07
   3.1300000  0.50744  0.23345  9.25688E+00  2.16931E-08  2.94366E-07
   3.1400000  0.50825  0.23308  9.41582E+00  2.20083E-08  2.98898E-07
   3.1500000  0.50906  0.23271  9.57770E+00  2.23290E-08  3.03513E-07
   3.1600000  0.50986  0.23234  9.74256E+00  2.26555E-08  3.08213E-07
   3.1700000  0.51067  0.23197  9.91048E+00  2.29877E-08  3.13001E-07
   3.1800000  0.51147  0.23161  1.00815E+01  2.33260E-08  3.17879E-07
   3.1900000  0.51228  0.23124  1.02558E+01  2.36703E-08  3.22848E-07
   3.2000000  0.51308  0.23088  1.04333E+01  2.40209E-08  3.27911E-07
   3.2100000  0.51388  0.23052  1.06142E+01  2.43780E-08  3.33071E-07
   3.2200000  0.51468  0.23016  1.07985E+01  2.47415E-08  3.38329E-07
   3.2300000  0.51548  0.22981  1.09863E+01  2.51118E-08  3.43688E-07
   3.2400000  0.51628  0.22945  1.11778E+01  2.54890E-08  3.49151E-07
   3.2500000  0.51707  0.22910  1.13729E+01  2.58732E-08  3.54719E-07
   3.2600000  0.51787  0.22875  1.15718E+01  2.62646E-08  3.60396E-07
   3.2700000  0.51866  0.22840  1.17745E+01  2.66634E-08  3.66184E-07
   3.2800000  0.51945  0.22805  1.19812E+01  2.70697E-08  3.72086E-07
   3.2900000  0.52025  0.22770  1.21920E+01  2.74838E-08  3.78105E-07
   3.3000000  0.52104  0.22736  1.24069E+01  2.79058E-08  3.84243E-07
   3.3100000  0.52182  0.22701  1.26260E+01  2.83360E-08  3.90504E-07
   3.3200000  0.52261  0.22667  1.28496E+01  2.87744E-08  3.96890E-07
   3.3300000  0.52340  0.22633  1.30775E+01  2.92214E-08  4.03405E-07
   3.3400000  0.52418  0.22599  1.33101E+01  2.96771E-08  4.10052E-07
   3.3500000  0.52497  0.22565  1.35474E+01  3.01417E-08  4.16833E-07
   3.3600000  0.52575  0.22532  1.37895E+01  3.06154E-08  4.23753E-07
   3.3700000  0.52653  0.22498  1.40365E+01  3.10985E-08  4.30814E-07
   3.3800000  0.52731  0.22465  1.42886E+01  3.15912E-08  4.38020E-07
   3.3900000  0.52809  0.22432  1.45459E+01  3.20937E-08  4.45375E-07
   3.4000000  0.52887  0.22399  1.48085E+01  3.26062E-08  4.52882E-07
   3.4100000  0.52965  0.22366  1.50766E+01  3.31290E-08  4.60544E-07
   3.4200000  0.53042  0.22333  1.53503E+01  3.36623E-08  4.68366E-07
   3.4300000  0.53120  0.22301  1.56297E+01  3.42064E-08  4.76352E-07
   3.4400000  0.53197  0.22268  1.59150E+01  3.47614E-08  4.84504E-07
   3.4500000  0.53275  0.22236  1.62065E+01  3.53277E-08  4.92827E-07
   3.4600000  0.53352  0.22204  1.65041E+01  3.59055E-08  5.01326E-07
   3.4700000  0.53429  0.22172  1.68081E+01  3.64950E-08  5.10003E-07
   3.4800000  0.53506  0.22140  1.71187E+01  3.70966E-08  5.18863E-07
   3.4900000  0.53583  0.22108  1.74360E+01  3.77104E-08  5.27910E-07
   3.5000000  0.53659  0.22076  1.77602E+01  3.83367E-08  5.37148E-07
   3.5100000  0.53736  0.22045  1.80916E+01  3.89759E-08  5.46582E-07
   3.5200000  0.53812  0.22014  1.84302E+01  3.96281E-08  5.56215E-07
   3.5300000  0.53889  0.21982  1.87763E+01  4.02936E-08  5.66051E-07
   3.5400000  0.53965  0.21951  1.91301E+01  4.09726E-08  5.76096E-07
   3.5500000  0.54041  0.21920  1.94918E+01  4.16655E-08  5.86352E-07
   3.5600000  0.54117  0.21890  1.98616E+01  4.23724E-08  5.96823E-07
   3.5700000  0.54193  0.21859  2.02397E+01  4.30936E-08  6.07515E-07
   3.5800000  0.54269  0.21828  2.06264E+01  4.38294E-08  6.18431E-07
   3.5900000  0.54345  0.21798  2.10219E+01  4.45800E-08  6.29574E-07
   3.6000000  0.54420  0.21768  2.14264E+01  4.53456E-08  6.40948E-07
   3.6100000  0.54496  0.21737  2.18402E+01  4.61264E-08  6.52557E-07
   3.6200000  0.54571  0.21707  2.22636E+01  4.69226E-08  6.64404E-07
   3.6300000  0.54647  0.21678  2.26967E+01  4.77344E-08  6.76493E-07
   3.6400000  0.54722  0.21648  2.31399E+01  4.85619E-08  6.88826E-07
   3.6500000  0.54797  0.21618  2.35934E+01  4.94053E-08  7.01405E-07
   3.6600000  0.54872  0.21588  2.40575E+01  5.02647E-08  7.14233E-07
   3.6700000  0.54947  0.21559  2.45325E+01  5.11401E-08  7.27313E-07
   3.6800000  0.55022  0.21530  2.50187E+01  5.20318E-08  7.40644E-07
   3.6900000  0.55096  0.21501  2.55163E+01  5.29396E-08  7.54229E-07
   3.7000000  0.55171  0.21471  2.60258E+01  5.38635E-08  7.68067E-07
   3.7100000  0.55246  0.21443  2.65473E+01  5.48035E-08  7.82159E-07
   3.7200000  0.55320  0.21414  2.70812E+01  5.57594E-08  7.96503E-07
   3.7300000  0.55394  0.21385  2.76279E+01  5.67312E-08  8.11098E-07
   3.7400000  0.55469  0.21356  2.81876E+01  5.77186E-08  8.25941E-07
   3.7500000  0.55543  0.21328  2.87607E+01  5.87212E-08  8.41028E-07
   3.7600000  0.55617  0.21299  2.93474E+01  5.97388E-08  8.56355E-07
   3.7700000  0.55691  0.21271  2.99483E+01  6.07708E-08  8.71916E-07
   3.7800000  0.55764  0.21243  3.05635E+01  6.18168E-08  8.87704E-07
   3.7900000  0.55838  0.21215  3.11934E+01  6.28761E-08  9.03711E-07
   3.8000000  0.55912  0.21187  3.18384E+01  6.39480E-08  9.19927E-07
   3.8100000  0.55985  0.21159  3.24988E+01  6.50317E-08  9.36340E-07
   3.8200000  0.56059  0.21132  3.31749E+01  6.61262E-08  9.52938E-07
   3.8300000  0.56132  0.21104  3.38671E+01  6.72305E-08  9.69704E-07
   3.8400000  0.56205  0.21076  3.45757E+01  6.83433E-08  9.86622E-07
   3.8500000  0.56278  0.21049  3.53010E+01  6.94632E-08  1.00367E-06
   3.8600000  0.56351  0.21022  3.60434E+01  7.05887E-08  1.02083E-06
   3.8700000  0.56424  0.20995  3.68031E+01  7.17182E-08  1.03808E-06
   3.8800000  0.56497  0.20968  3.75804E+01  7.28498E-08  1.05539E-06
   3.8900000  0.56570  0.20941  3.83757E+01  7.39815E-08  1.07272E-06
   3.9000000  0.56643  0.20914  3.91891E+01  7.51110E-08  1.09006E-06
   3.9100000  0.56715  0.20887  4.00210E+01  7.62359E-08  1.10736E-06
   3.9200000  0.56788  0.20860  4.08716E+01  7.73536E-08  1.12458E-06
   3.9300000  0.56860  0.20834  4.17410E+01  7.84612E-08  1.14169E-06
   3.9400000  0.56932  0.20807  4.26294E+01  7.95558E-08  1.15863E-06
   3.9500000  0.57005  0.20781  4.35370E+01  8.06340E-08  1.17537E-06
   3.9600000  0.57077  0.20755  4.44638E+01  8.16926E-08  1.19185E-06
   3.9700000  0.57149  0.20728  4.54100E+01  8.27277E-08  1.20801E-06
   3.9800000  0.57221  0.20702  4.63755E+01  8.37355E-08  1.22380E-06
   3.9900000  0.57292  0.20676  4.73604E+01  8.47121E-08  1.23916E-06
   4.0000000  0.57364  0.20651  4.83646E+01  8.56532E-08  1.25403E-06
   4.0100000  0.57436  0.20625  4.93879E+01  8.65545E-08  1.26834E-06
   4.0200000  0.57507  0.20599  5.04302E+01  8.74116E-08  1.28202E-06
   4.0300000  0.57579  0.20574  5.14913E+01  8.82197E-08  1.29501E-06
   4.0400000  0.57650  0.20548  5.25708E+01  8.89744E-08  1.30723E-06
   4.0500000  0.57722  0.20523  5.36684E+01  8.96709E-08  1.31862E-06
   4.0600000  0.57793  0.20497  5.47837E+01  9.03045E-08  1.32911E-06
   4.0700000  0.57864  0.20472  5.59162E+01  9.08706E-08  1.33861E-06
   4.0800000  0.57935  0.20447  5.70652E+01  9.13647E-08  1.34707E-06
   4.0900000  0.58006  0.20422  5.82303E+01  9.17824E-08  1.35442E-06
   4.1000000  0.58077  0.20397  5.94106E+01  9.21195E-08  1.36058E-06
   4.1100000  0.58148  0.20372  6.06053E+01  9.23720E-08  1.36551E-06
   4.1200000  0.58218  0.20348  6.18137E+01  9.25364E-08  1.36914E-06
   4.1300000  0.58289  0.20323  6.30348E+01  9.26093E-08  1.37141E-06
   4.1400000  0.58359  0.20298  6.42676E+01  9.25879E-08  1.37230E-06
   4.1500000  0.58430  0.20274  6.55111E+01  9.24699E-08  1.37175E-06
   4.1600000  0.58500  0.20250  6.67641E+01  9.22533E-08  1.36973E-06
   4.1700000  0.58570  0.20225  6.80255E+01  9.19367E-08  1.36623E-06
   4.1800000  0.58641  0.20201  6.92940E+01  9.15196E-08  1.36122E-06
   4.1900000  0.58711  0.20177  7.05685E+01  9.10016E-08  1.35470E-06
   4.2000000  0.58781  0.20153  7.18476E+01  9.03834E-08  1.34667E-06
   4.2100000  0.58851  0.20129  7.31299E+01  8.96659E-08  1.33715E-06
   4.2200000  0.58921  0.20105  7.44142E+01  8.88510E-08  1.32615E-06
   4.2300000  0.58990  0.20081  7.56991E+01  8.79411E-08  1.31372E-06
   4.2400000  0.59060  0.20058  7.69833E+01  8.69390E-08  1.29988E-06
   4.2500000  0.59130  0.20034  7.82653E+01  8.58483E-08  1.28469E-06
   4.2600000  0.59199  0.20010  7.95439E+01  8.46731E-08  1.26821E-06
   4.2700000  0.59269  0.19987  8.08177E+01  8.34179E-08  1.25050E-06
   4.2800000  0.59338  0.19964  8.20855E+01  8.20876E-08  1.23163E-06
   4.2900000  0.59407  0.19940  8.33459E+01  8.06877E-08  1.21168E-06
   4.3000000  0.59476  0.19917  8.45978E+01  7.92236E-08  1.19073E-06
   4.3100000  0.59546  0.19894  8.58401E+01  7.77013E-08  1.16887E-06
   4.3200000  0.59615  0.19871  8.70715E+01  7.61269E-08  1.14618E-06
   4.3300000  0.59684  0.19848  8.82912E+01  7.45064E-08  1.12276E-06
   4.3400000  0.59752  0.19825  8.94980E+01  7.28461E-08  1.09869E-06
   4.3500000  0.59821  0.19802 -8.93089E+01  7.11520E-08  1.07408E-06
   4.3600000  0.59890  0.19780 -8.81303E+01  6.94304E-08  1.04900E-06
   4.3700000  0.59959  0.19757 -8.69671E+01  6.76871E-08  1.02355E-06
   4.3800000  0.60027  0.19734 -8.58199E+01  6.59279E-08  9.97811E-07
   4.3900000  0.60096  0.19712 -8.46894E+01  6.41584E-08  9.71872E-07
   4.4000000  0.60164  0.19690 -8.35760E+01  6.23838E-08  9.45811E-07
   4.4100000  0.60232  0.19667 -8.24804E+01  6.06093E-08  9.19703E-07
   4.4200000  0.60301  0.19645 -8.14029E+01  5.88394E-08  8.93621E-07
   4.4300000  0.60369  0.19623 -8.03439E+01  5.70786E-08  8.67630E-07
   4.4400000  0.60437  0.19601 -7.93036E+01  5.53310E-08  8.41794E-07
   4.4500000  0.60505  0.19579 -7.82822E+01  5.36003E-08  8.16169E-07
   4.4600000  0.60573  0.19557 -7.72800E+01  5.18898E-08  7.90807E-07
   4.4700000  0.60641  0.19535 -7.62971E+01  5.02026E-08  7.65756E-07
   4.4800000  0.60709  0.19513 -7.53335E+01  4.85415E-08  7.41057E-07
   4.4900000  0.60776  0.19491 -7.43892E+01  4.69087E-08  7.16749E-07
   4.5000000  0.60844  0.19470 -7.34642E+01  4.53064E-08  6.92864E-07
   4.5100000  0.60911  0.19448 -7.25584E+01  4.37363E-08  6.69431E-07
   4.5200000  0.60979  0.19426 -7.16717E+01  4.22000E-08  6.46474E-07
   4.5300000  0.61046  0.19405 -7.08040E+01  4.06988E-08  6.24013E-07
   4.5400000  0.61114  0.19384 -6.99550E+01  3.92335E-08  6.02066E-07
   4.5500000  0.61181  0.19362 -6.91247E+01  3.78051E-08  5.80645E-07
   4.5600000  0.61248  0.19341 -6.83126E+01  3.64140E-08  5.59761E-07
   4.5700000  0.61315  0.19320 -6.75187E+01  3.50607E-08  5.39422E-07
   4.5800000  0.61382  0.19299 -6.67427E+01  3.37453E-08  5.19630E-07
   4.5900000  0.61449  0.19278 -6.59842E+01  3.24678E-08  5.00390E-07
   4.6000000  0.61516  0.19257 -6.52429E+01  3.12283E-08  4.81700E-07
   4.6100000  0.61583  0.19236 -6.45187E+01  3.00265E-08  4.63559E-07
   4.6200000  0.61650  0.19215 -6.38110E+01  2.88620E-08  4.45963E-07
   4.6300000  0.61716  0.19194 -6.31197E+01  2.77344E-08  4.28908E-07
   4.6400000  0.61783  0.19174 -6.24443E+01  2.66432E-08  4.12386E-07
   4.6500000  0.61850  0.19153 -6.17846E+01  2.55878E-08  3.96391E-07
   4.6600000  0.61916  0.19132 -6.11402E+01  2.45676E-08  3.80913E-07
   4.6700000  0.61982  0.19112 -6.05107E+01  2.35820E-08  3.65943E-07
   4.6800000  0.62049  0.19091 -5.98959E+01  2.26300E-08  3.51471E-07
   4.6900000  0.62115  0.19071 -5.92954E+01  2.17110E-08  3.37487E-07
   4.7000000  0.62181  0.19051 -5.87088E+01  2.08242E-08  3.23979E-07
   4.7100000  0.62247  0.19031 -5.81359E+01  1.99688E-08  3.10935E-07
   4.7200000  0.62313  0.19010 -5.75762E+01  1.91439E-08  2.98345E-07
   4.7300000  0.62379  0.18990 -5.70295E+01  1.83486E-08  2.86196E-07
   4.7400000  0.62445  0.18970 -5.64955E+01  1.75822E-08  2.74475E-07
   4.7500000  0.62511  0.18950 -5.59737E+01  1.68438E-08  2.63172E-07
   4.7600000  0.62577  0.18930 -5.54640E+01  1.61325E-08  2.52273E-07
   4.7700000  0.62643  0.18911 -5.49659E+01  1.54475E-08  2.41767E-07
   4.7800000  0.62708  0.18891 -5.44792E+01  1.47879E-08  2.31642E-07
   4.7900000  0.62774  0.18871 -5.40037E+01  1.41531E-08  2.21885E-07
   4.8000000  0.62839  0.18851 -5.35389E+01  1.35420E-08  2.12486E-07
   4.8100000  0.62905  0.18832 -5.30847E+01  1.29540E-08  2.03433E-07
   4.8200000  0.62970  0.18812 -5.26407E+01  1.23883E-08  1.94714E-07
   4.8300000  0.63035  0.18793 -5.22067E+01  1.18441E-08  1.86319E-07
   4.8400000  0.63101  0.18773 -5.17824E+01  1.13207E-08  1.78236E-07
   4.8500000  0.63166  0.18754 -5.13676E+01  1.08174E-08  1.70456E-07
   4.8600000  0.63231  0.18735 -5.09619E+01  1.03334E-08  1.62967E-07
   4.8700000  0.63296  0.18715 -5.05653E+01  9.86809E-09  1.55761E-07
   4.8800000  0.63361  0.18696 -5.01773E+01  9.42080E-09  1.48826E-07
   4.8900000  0.63426  0.18677 -4.97978E+01  8.99090E-09  1.42155E-07
   4.9000000  0.63490  0.18658 -4.94266E+01  8.57775E-09  1.35737E-07
   4.9100000  0.63555  0.18639 -4.90635E+01  8.18075E-09  1.29564E-07
   4.9200000  0.63620  0.18620 -4.87081E+01  7.79933E-09  1.23628E-07
   4.9300000  0.63685  0.18601 -4.83604E+01  7.43291E-09  1.17919E-07
   4.9400000  0.63749  0.18582 -4.80201E+01  7.08096E-09  1.12430E-07
   4.9500000  0.63814  0.18564 -4.76870E+01  6.74294E-09  1.07154E-07
   4.9600000  0.63878  0.18545 -4.73610E+01  6.41836E-09  1.02082E-07
   4.9700000  0.63942  0.18526 -4.70418E+01  6.10673E-09  9.72069E-08
   4.9800000  0.64007  0.18508 -4.67293E+01  5.80756E-09  9.25225E-08
   4.9900000  0.64071  0.18489 -4.64232E+01  5.52042E-09  8.80218E-08
   5.0000000  0.64135  0.18470 -4.61235E+01  5.24485E-09  8.36982E-08
