 #  Energy      k        eta    phase shift cross section  S factor 
 #  (MeV)    (fm^{-1})           (degrees)       (b)       (MeV b)  
   0.0100000  0.02868  4.13012  1.38411E-15  3.53798E-22  6.58916E-13
   0.0200000  0.04056  2.92044  4.66477E-12  5.95593E-19  1.10950E-12
   0.0300000  0.04968  2.38453  2.06974E-10  1.76000E-17  1.69595E-12
   0.0400000  0.05736  2.06506  2.21021E-09  1.40836E-16  2.43114E-12
   0.0500000  0.06414  1.84705  1.19137E-08  6.06808E-16  3.32776E-12
   0.0600000  0.07026  1.68611  4.33227E-08  1.83718E-15  4.39837E-12
   0.0700000  0.07589  1.56104  1.22339E-07  4.44300E-15  5.65538E-12
   0.0800000  0.08113  1.46022  2.90084E-07  9.21033E-15  7.11113E-12
   0.0900000  0.08605  1.37671  6.05645E-07  1.70786E-14  8.77780E-12
   0.1000000  0.09070  1.30606  1.14825E-06  2.91174E-14  1.06675E-11
   0.1100000  0.09513  1.24528  2.01897E-06  4.65050E-14  1.27923E-11
   0.1200000  0.09936  1.19226  3.34207E-06  7.05087E-14  1.51640E-11
   0.1300000  0.10341  1.14549  5.26593E-06  1.02468E-13  1.77946E-11
   0.1400000  0.10732  1.10382  7.96377E-06  1.43781E-13  2.06959E-11
   0.1500000  0.11109  1.06639  1.16342E-05  1.95890E-13  2.38795E-11
   0.1600000  0.11473  1.03253  1.65015E-05  2.60274E-13  2.73571E-11
   0.1700000  0.11826  1.00170  2.28159E-05  3.38439E-13  3.11403E-11
   0.1800000  0.12169  0.97348  3.08534E-05  4.31907E-13  3.52407E-11
   0.1900000  0.12502  0.94751  4.09163E-05  5.42217E-13  3.96698E-11
   0.2000000  0.12827  0.92352  5.33326E-05  6.70915E-13  4.44389E-11
   0.2100000  0.13144  0.90127  6.84560E-05  8.19549E-13  4.95594E-11
   0.2200000  0.13453  0.88054  8.66729E-05  9.89668E-13  5.50428E-11
   0.2300000  0.13755  0.86119  1.08387E-04  1.18282E-12  6.09002E-11
   0.2400000  0.14051  0.84306  1.34002E-04  1.40054E-12  6.71430E-11
   0.2500000  0.14341  0.82602  1.64025E-04  1.64436E-12  7.37823E-11
   0.2600000  0.14625  0.80998  1.98869E-04  1.91581E-12  8.08294E-11
   0.2700000  0.14904  0.79484  2.39119E-04  2.21639E-12  8.82953E-11
   0.2800000  0.15177  0.78052  2.85207E-04  2.54761E-12  9.61912E-11
   0.2900000  0.15446  0.76694  3.37731E-04  2.91095E-12  1.04528E-10
   0.3000000  0.15710  0.75405  3.97266E-04  3.30788E-12  1.13317E-10
   0.3100000  0.15970  0.74179  4.64482E-04  3.73985E-12  1.22569E-10
   0.3200000  0.16225  0.73011  5.39855E-04  4.20832E-12  1.32295E-10
   0.3300000  0.16477  0.71896  6.24101E-04  4.71469E-12  1.42507E-10
   0.3400000  0.16724  0.70831  7.17878E-04  5.26038E-12  1.53214E-10
   0.3500000  0.16969  0.69812  8.21990E-04  5.84679E-12  1.64428E-10
   0.3600000  0.17209  0.68835  9.36921E-04  6.47528E-12  1.76160E-10
   0.3700000  0.17447  0.67899  1.06350E-03  7.14722E-12  1.88420E-10
   0.3800000  0.17681  0.66999  1.20250E-03  7.86395E-12  2.01220E-10
   0.3900000  0.17912  0.66135  1.35466E-03  8.62679E-12  2.14571E-10
   0.4000000  0.18140  0.65303  1.52098E-03  9.43707E-12  2.28482E-10
   0.4100000  0.18365  0.64502  1.70189E-03  1.02961E-11  2.42966E-10
   0.4200000  0.18588  0.63729  1.89841E-03  1.12051E-11  2.58032E-10
   0.4300000  0.18808  0.62984  2.11138E-03  1.21653E-11  2.73692E-10
   0.4400000  0.19026  0.62264  2.34166E-03  1.31781E-11  2.89956E-10
   0.4500000  0.19241  0.61568  2.59044E-03  1.42446E-11  3.06835E-10
   0.4600000  0.19453  0.60895  2.85807E-03  1.53660E-11  3.24340E-10
   0.4700000  0.19663  0.60244  3.14571E-03  1.65436E-11  3.42482E-10
   0.4800000  0.19872  0.59613  3.45434E-03  1.77786E-11  3.61272E-10
   0.4900000  0.20077  0.59002  3.78489E-03  1.90721E-11  3.80719E-10
   0.5000000  0.20281  0.58409  4.13836E-03  2.04252E-11  4.00835E-10
   0.5100000  0.20483  0.57833  4.51575E-03  2.18392E-11  4.21632E-10
   0.5200000  0.20683  0.57274  4.91803E-03  2.33151E-11  4.43118E-10
   0.5300000  0.20881  0.56732  5.34625E-03  2.48542E-11  4.65306E-10
   0.5400000  0.21077  0.56204  5.80148E-03  2.64574E-11  4.88206E-10
   0.5500000  0.21271  0.55691  6.28477E-03  2.81259E-11  5.11829E-10
   0.5600000  0.21464  0.55191  6.79775E-03  2.98607E-11  5.36186E-10
   0.5700000  0.21654  0.54705  7.34039E-03  3.16630E-11  5.61287E-10
   0.5800000  0.21844  0.54231  7.91438E-03  3.35338E-11  5.87144E-10
   0.5900000  0.22031  0.53770  8.52079E-03  3.54742E-11  6.13767E-10
   0.6000000  0.22217  0.53320  9.16083E-03  3.74852E-11  6.41167E-10
   0.6100000  0.22401  0.52881  9.83576E-03  3.95678E-11  6.69355E-10
   0.6200000  0.22584  0.52453  1.05465E-02  4.17230E-11  6.98342E-10
   0.6300000  0.22766  0.52035  1.12944E-02  4.39519E-11  7.28139E-10
   0.6400000  0.22946  0.51626  1.20806E-02  4.62555E-11  7.58757E-10
   0.6500000  0.23124  0.51228  1.29073E-02  4.86347E-11  7.90206E-10
   0.6600000  0.23301  0.50838  1.37739E-02  5.10906E-11  8.22499E-10
   0.6700000  0.23477  0.50457  1.46826E-02  5.36241E-11  8.55645E-10
   0.6800000  0.23652  0.50085  1.56345E-02  5.62362E-11  8.89656E-10
   0.6900000  0.23825  0.49721  1.66310E-02  5.89279E-11  9.24544E-10
   0.7000000  0.23997  0.49364  1.76734E-02  6.17001E-11  9.60319E-10
   0.7100000  0.24168  0.49016  1.87630E-02  6.45538E-11  9.96992E-10
   0.7200000  0.24338  0.48674  1.99011E-02  6.74898E-11  1.03458E-09
   0.7300000  0.24506  0.48339  2.10890E-02  7.05093E-11  1.07308E-09
   0.7400000  0.24673  0.48012  2.23281E-02  7.36130E-11  1.11252E-09
   0.7500000  0.24839  0.47691  2.36198E-02  7.68020E-11  1.15290E-09
   0.7600000  0.25004  0.47376  2.49655E-02  8.00771E-11  1.19423E-09
   0.7700000  0.25168  0.47067  2.63665E-02  8.34393E-11  1.23653E-09
   0.7800000  0.25331  0.46764  2.78244E-02  8.68895E-11  1.27981E-09
   0.7900000  0.25493  0.46467  2.93404E-02  9.04285E-11  1.32408E-09
   0.8000000  0.25654  0.46176  3.09160E-02  9.40574E-11  1.36935E-09
   0.8100000  0.25814  0.45890  3.25528E-02  9.77770E-11  1.41564E-09
   0.8200000  0.25973  0.45610  3.42521E-02  1.01588E-10  1.46295E-09
   0.8300000  0.26131  0.45334  3.60155E-02  1.05492E-10  1.51129E-09
   0.8400000  0.26288  0.45063  3.78444E-02  1.09489E-10  1.56069E-09
   0.8500000  0.26444  0.44797  3.97425E-02  1.13580E-10  1.61114E-09
   0.8600000  0.26599  0.44536  4.17072E-02  1.17767E-10  1.66267E-09
   0.8700000  0.26753  0.44280  4.37419E-02  1.22050E-10  1.71528E-09
   0.8800000  0.26906  0.44027  4.58483E-02  1.26429E-10  1.76899E-09
   0.8900000  0.27059  0.43779  4.80280E-02  1.30907E-10  1.82380E-09
   0.9000000  0.27210  0.43535  5.02827E-02  1.35483E-10  1.87974E-09
   0.9100000  0.27361  0.43295  5.26138E-02  1.40159E-10  1.93681E-09
   0.9200000  0.27511  0.43059  5.50229E-02  1.44935E-10  1.99503E-09
   0.9300000  0.27660  0.42827  5.75117E-02  1.49813E-10  2.05440E-09
   0.9400000  0.27808  0.42599  6.00820E-02  1.54794E-10  2.11495E-09
   0.9500000  0.27956  0.42374  6.27357E-02  1.59877E-10  2.17668E-09
   0.9600000  0.28103  0.42153  6.54737E-02  1.65065E-10  2.23961E-09
   0.9700000  0.28249  0.41935  6.82982E-02  1.70357E-10  2.30375E-09
   0.9800000  0.28394  0.41721  7.12107E-02  1.75756E-10  2.36911E-09
   0.9900000  0.28538  0.41509  7.42133E-02  1.81261E-10  2.43570E-09
   1.0000000  0.28682  0.41301  7.73073E-02  1.86874E-10  2.50355E-09
   1.0100000  0.28825  0.41096  8.04948E-02  1.92595E-10  2.57265E-09
   1.0200000  0.28967  0.40894  8.37773E-02  1.98426E-10  2.64304E-09
   1.0300000  0.29109  0.40695  8.71569E-02  2.04368E-10  2.71471E-09
   1.0400000  0.29250  0.40499  9.06350E-02  2.10421E-10  2.78768E-09
   1.0500000  0.29390  0.40306  9.42140E-02  2.16586E-10  2.86198E-09
   1.0600000  0.29530  0.40115  9.78951E-02  2.22864E-10  2.93760E-09
   1.0700000  0.29669  0.39927  1.01681E-01  2.29256E-10  3.01456E-09
   1.0800000  0.29807  0.39742  1.05572E-01  2.35764E-10  3.09289E-09
   1.0900000  0.29945  0.39559  1.09577E-01  2.42387E-10  3.17259E-09
   1.1000000  0.30082  0.39379  1.13686E-01  2.49128E-10  3.25368E-09
   1.1100000  0.30218  0.39201  1.17908E-01  2.55986E-10  3.33616E-09
   1.1200000  0.30354  0.39026  1.22243E-01  2.62963E-10  3.42007E-09
   1.1300000  0.30489  0.38853  1.26695E-01  2.70060E-10  3.50540E-09
   1.1400000  0.30624  0.38682  1.31264E-01  2.77277E-10  3.59218E-09
   1.1500000  0.30758  0.38514  1.35953E-01  2.84617E-10  3.68043E-09
   1.1600000  0.30892  0.38347  1.40763E-01  2.92079E-10  3.77015E-09
   1.1700000  0.31024  0.38183  1.45697E-01  2.99665E-10  3.86136E-09
   1.1800000  0.31157  0.38021  1.50758E-01  3.07375E-10  3.95408E-09
   1.1900000  0.31288  0.37861  1.55946E-01  3.15211E-10  4.04832E-09
   1.2000000  0.31420  0.37703  1.61265E-01  3.23174E-10  4.14410E-09
   1.2100000  0.31550  0.37547  1.66715E-01  3.31265E-10  4.24144E-09
   1.2200000  0.31680  0.37392  1.72301E-01  3.39485E-10  4.34035E-09
   1.2300000  0.31810  0.37240  1.78022E-01  3.47834E-10  4.44084E-09
   1.2400000  0.31939  0.37090  1.83883E-01  3.56314E-10  4.54294E-09
   1.2500000  0.32068  0.36941  1.89884E-01  3.64926E-10  4.64666E-09
   1.2600000  0.32196  0.36794  1.96028E-01  3.73671E-10  4.75202E-09
   1.2700000  0.32323  0.36649  2.02318E-01  3.82551E-10  4.85904E-09
   1.2800000  0.32450  0.36505  2.08756E-01  3.91565E-10  4.96772E-09
   1.2900000  0.32577  0.36364  2.15343E-01  4.00716E-10  5.07810E-09
   1.3000000  0.32703  0.36224  2.22083E-01  4.10004E-10  5.19018E-09
   1.3100000  0.32828  0.36085  2.28977E-01  4.19431E-10  5.30399E-09
   1.3200000  0.32953  0.35948  2.36029E-01  4.28998E-10  5.41955E-09
   1.3300000  0.33078  0.35813  2.43240E-01  4.38705E-10  5.53686E-09
   1.3400000  0.33202  0.35679  2.50613E-01  4.48554E-10  5.65596E-09
   1.3500000  0.33326  0.35546  2.58150E-01  4.58547E-10  5.77685E-09
   1.3600000  0.33449  0.35415  2.65853E-01  4.68684E-10  5.89957E-09
   1.3700000  0.33572  0.35286  2.73726E-01  4.78967E-10  6.02412E-09
   1.3800000  0.33694  0.35158  2.81771E-01  4.89396E-10  6.15053E-09
   1.3900000  0.33816  0.35031  2.89989E-01  4.99974E-10  6.27881E-09
   1.4000000  0.33937  0.34906  2.98385E-01  5.10701E-10  6.40899E-09
   1.4100000  0.34058  0.34782  3.06960E-01  5.21579E-10  6.54109E-09
   1.4200000  0.34179  0.34659  3.15717E-01  5.32608E-10  6.67513E-09
   1.4300000  0.34299  0.34538  3.24660E-01  5.43791E-10  6.81113E-09
   1.4400000  0.34418  0.34418  3.33789E-01  5.55128E-10  6.94910E-09
   1.4500000  0.34538  0.34299  3.43108E-01  5.66622E-10  7.08908E-09
   1.4600000  0.34657  0.34181  3.52621E-01  5.78272E-10  7.23108E-09
   1.4700000  0.34775  0.34065  3.62329E-01  5.90081E-10  7.37512E-09
   1.4800000  0.34893  0.33949  3.72235E-01  6.02050E-10  7.52123E-09
   1.4900000  0.35011  0.33835  3.82343E-01  6.14181E-10  7.66943E-09
   1.5000000  0.35128  0.33722  3.92655E-01  6.26475E-10  7.81974E-09
   1.5100000  0.35245  0.33610  4.03174E-01  6.38933E-10  7.97219E-09
   1.5200000  0.35362  0.33500  4.13903E-01  6.51556E-10  8.12680E-09
   1.5300000  0.35478  0.33390  4.24845E-01  6.64348E-10  8.28359E-09
   1.5400000  0.35594  0.33281  4.36003E-01  6.77308E-10  8.44258E-09
   1.5500000  0.35709  0.33174  4.47380E-01  6.90438E-10  8.60381E-09
   1.5600000  0.35824  0.33067  4.58979E-01  7.03740E-10  8.76729E-09
   1.5700000  0.35939  0.32962  4.70804E-01  7.17216E-10  8.93305E-09
   1.5800000  0.36053  0.32857  4.82856E-01  7.30868E-10  9.10112E-09
   1.5900000  0.36167  0.32754  4.95141E-01  7.44696E-10  9.27152E-09
   1.6000000  0.36280  0.32651  5.07660E-01  7.58702E-10  9.44428E-09
   1.6100000  0.36393  0.32550  5.20417E-01  7.72889E-10  9.61943E-09
   1.6200000  0.36506  0.32449  5.33416E-01  7.87257E-10  9.79699E-09
   1.6300000  0.36619  0.32350  5.46659E-01  8.01810E-10  9.97698E-09
   1.6400000  0.36731  0.32251  5.60150E-01  8.16547E-10  1.01595E-08
   1.6500000  0.36843  0.32153  5.73894E-01  8.31472E-10  1.03444E-08
   1.6600000  0.36954  0.32056  5.87891E-01  8.46586E-10  1.05319E-08
   1.6700000  0.37065  0.31960  6.02156E-01  8.61891E-10  1.07219E-08
   1.6800000  0.37176  0.31865  6.16674E-01  8.77389E-10  1.09146E-08
   1.6900000  0.37287  0.31770  6.31459E-01  8.93082E-10  1.11098E-08
   1.7000000  0.37397  0.31677  6.46513E-01  9.08971E-10  1.13077E-08
   1.7100000  0.37507  0.31584  6.61839E-01  9.25059E-10  1.15083E-08
   1.7200000  0.37616  0.31492  6.77443E-01  9.41347E-10  1.17115E-08
   1.7300000  0.37725  0.31401  6.93327E-01  9.57839E-10  1.19175E-08
   1.7400000  0.37834  0.31310  7.09495E-01  9.74535E-10  1.21263E-08
   1.7500000  0.37943  0.31221  7.25952E-01  9.91438E-10  1.23379E-08
   1.7600000  0.38051  0.31132  7.42703E-01  1.00855E-09  1.25523E-08
   1.7700000  0.38159  0.31044  7.59748E-01  1.02587E-09  1.27696E-08
   1.7800000  0.38267  0.30957  7.77095E-01  1.04341E-09  1.29898E-08
   1.7900000  0.38374  0.30870  7.94746E-01  1.06116E-09  1.32130E-08
   1.8000000  0.38481  0.30784  8.12706E-01  1.07913E-09  1.34391E-08
   1.8100000  0.38588  0.30699  8.30978E-01  1.09733E-09  1.36682E-08
   1.8200000  0.38694  0.30614  8.49568E-01  1.11574E-09  1.39004E-08
   1.8300000  0.38800  0.30531  8.68480E-01  1.13438E-09  1.41357E-08
   1.8400000  0.38906  0.30448  8.87717E-01  1.15325E-09  1.43741E-08
   1.8500000  0.39012  0.30365  9.07285E-01  1.17235E-09  1.46157E-08
   1.8600000  0.39117  0.30284  9.27188E-01  1.19168E-09  1.48605E-08
   1.8700000  0.39222  0.30202  9.47434E-01  1.21124E-09  1.51085E-08
   1.8800000  0.39327  0.30122  9.68025E-01  1.23105E-09  1.53599E-08
   1.8900000  0.39431  0.30042  9.88965E-01  1.25109E-09  1.56145E-08
   1.9000000  0.39536  0.29963  1.01026E+00  1.27138E-09  1.58725E-08
   1.9100000  0.39639  0.29884  1.03191E+00  1.29192E-09  1.61340E-08
   1.9200000  0.39743  0.29807  1.05393E+00  1.31270E-09  1.63989E-08
   1.9300000  0.39846  0.29729  1.07631E+00  1.33374E-09  1.66673E-08
   1.9400000  0.39950  0.29653  1.09907E+00  1.35503E-09  1.69393E-08
   1.9500000  0.40052  0.29576  1.12221E+00  1.37658E-09  1.72148E-08
   1.9600000  0.40155  0.29501  1.14574E+00  1.39839E-09  1.74940E-08
   1.9700000  0.40257  0.29426  1.16965E+00  1.42047E-09  1.77769E-08
   1.9800000  0.40359  0.29351  1.19396E+00  1.44281E-09  1.80636E-08
   1.9900000  0.40461  0.29278  1.21867E+00  1.46542E-09  1.83540E-08
   2.0000000  0.40563  0.29204  1.24378E+00  1.48831E-09  1.86483E-08
   2.0100000  0.40664  0.29132  1.26931E+00  1.51148E-09  1.89464E-08
   2.0200000  0.40765  0.29059  1.29525E+00  1.53492E-09  1.92485E-08
   2.0300000  0.40866  0.28988  1.32162E+00  1.55865E-09  1.95546E-08
   2.0400000  0.40966  0.28917  1.34842E+00  1.58267E-09  1.98648E-08
   2.0500000  0.41066  0.28846  1.37566E+00  1.60698E-09  2.01791E-08
   2.0600000  0.41167  0.28776  1.40333E+00  1.63159E-09  2.04975E-08
   2.0700000  0.41266  0.28706  1.43146E+00  1.65650E-09  2.08202E-08
   2.0800000  0.41366  0.28637  1.46004E+00  1.68171E-09  2.11472E-08
   2.0900000  0.41465  0.28569  1.48908E+00  1.70722E-09  2.14785E-08
   2.1000000  0.41564  0.28501  1.51859E+00  1.73305E-09  2.18142E-08
   2.1100000  0.41663  0.28433  1.54857E+00  1.75919E-09  2.21544E-08
   2.1200000  0.41762  0.28366  1.57903E+00  1.78565E-09  2.24991E-08
   2.1300000  0.41860  0.28299  1.60998E+00  1.81244E-09  2.28484E-08
   2.1400000  0.41958  0.28233  1.64143E+00  1.83955E-09  2.32023E-08
   2.1500000  0.42056  0.28167  1.67337E+00  1.86699E-09  2.35610E-08
   2.1600000  0.42154  0.28102  1.70583E+00  1.89478E-09  2.39245E-08
   2.1700000  0.42251  0.28037  1.73880E+00  1.92290E-09  2.42929E-08
   2.1800000  0.42349  0.27973  1.77230E+00  1.95137E-09  2.46662E-08
   2.1900000  0.42446  0.27909  1.80633E+00  1.98019E-09  2.50445E-08
   2.2000000  0.42542  0.27845  1.84090E+00  2.00937E-09  2.54279E-08
   2.2100000  0.42639  0.27782  1.87602E+00  2.03891E-09  2.58165E-08
   2.2200000  0.42735  0.27720  1.91169E+00  2.06881E-09  2.62103E-08
   2.2300000  0.42831  0.27657  1.94792E+00  2.09909E-09  2.66095E-08
   2.2400000  0.42927  0.27596  1.98473E+00  2.12974E-09  2.70140E-08
   2.2500000  0.43023  0.27534  2.02212E+00  2.16078E-09  2.74240E-08
   2.2600000  0.43119  0.27473  2.06010E+00  2.19220E-09  2.78396E-08
   2.2700000  0.43214  0.27413  2.09867E+00  2.22402E-09  2.82609E-08
   2.2800000  0.43309  0.27352  2.13785E+00  2.25623E-09  2.86878E-08
   2.2900000  0.43404  0.27293  2.17765E+00  2.28885E-09  2.91207E-08
   2.3000000  0.43499  0.27233  2.21807E+00  2.32189E-09  2.95594E-08
   2.3100000  0.43593  0.27174  2.25913E+00  2.35534E-09  3.00042E-08
   2.3200000  0.43687  0.27116  2.30083E+00  2.38921E-09  3.04550E-08
   2.3300000  0.43781  0.27057  2.34319E+00  2.42351E-09  3.09121E-08
   2.3400000  0.43875  0.26999  2.38621E+00  2.45825E-09  3.13755E-08
   2.3500000  0.43969  0.26942  2.42990E+00  2.49344E-09  3.18453E-08
   2.3600000  0.44062  0.26885  2.47428E+00  2.52907E-09  3.23216E-08
   2.3700000  0.44156  0.26828  2.51935E+00  2.56517E-09  3.28045E-08
   2.3800000  0.44249  0.26772  2.56513E+00  2.60172E-09  3.32942E-08
   2.3900000  0.44341  0.26716  2.61163E+00  2.63875E-09  3.37907E-08
   2.4000000  0.44434  0.26660  2.65886E+00  2.67626E-09  3.42941E-08
   2.4100000  0.44527  0.26604  2.70682E+00  2.71426E-09  3.48047E-08
   2.4200000  0.44619  0.26549  2.75554E+00  2.75275E-09  3.53224E-08
   2.4300000  0.44711  0.26495  2.80501E+00  2.79174E-09  3.58474E-08
   2.4400000  0.44803  0.26440  2.85527E+00  2.83125E-09  3.63798E-08
   2.4500000  0.44895  0.26386  2.90631E+00  2.87128E-09  3.69198E-08
   2.4600000  0.44986  0.26333  2.95815E+00  2.91183E-09  3.74675E-08
   2.4700000  0.45077  0.26279  3.01080E+00  2.95292E-09  3.80230E-08
   2.4800000  0.45169  0.26226  3.06428E+00  2.99456E-09  3.85865E-08
   2.4900000  0.45260  0.26174  3.11860E+00  3.03676E-09  3.91581E-08
   2.5000000  0.45350  0.26121  3.17377E+00  3.07952E-09  3.97379E-08
   2.5100000  0.45441  0.26069  3.22981E+00  3.12285E-09  4.03260E-08
   2.5200000  0.45531  0.26017  3.28673E+00  3.16677E-09  4.09227E-08
   2.5300000  0.45622  0.25966  3.34455E+00  3.21128E-09  4.15281E-08
   2.5400000  0.45712  0.25915  3.40327E+00  3.25640E-09  4.21424E-08
   2.5500000  0.45802  0.25864  3.46293E+00  3.30213E-09  4.27656E-08
   2.5600000  0.45891  0.25813  3.52352E+00  3.34849E-09  4.33980E-08
   2.5700000  0.45981  0.25763  3.58507E+00  3.39549E-09  4.40397E-08
   2.5800000  0.46070  0.25713  3.64759E+00  3.44314E-09  4.46909E-08
   2.5900000  0.46159  0.25663  3.71110E+00  3.49145E-09  4.53517E-08
   2.6000000  0.46248  0.25614  3.77561E+00  3.54043E-09  4.60224E-08
   2.6100000  0.46337  0.25565  3.84115E+00  3.59010E-09  4.67032E-08
   2.6200000  0.46426  0.25516  3.90772E+00  3.64046E-09  4.73942E-08
   2.6300000  0.46515  0.25467  3.97536E+00  3.69153E-09  4.80956E-08
   2.6400000  0.46603  0.25419  4.04407E+00  3.74333E-09  4.88076E-08
   2.6500000  0.46691  0.25371  4.11388E+00  3.79586E-09  4.95304E-08
   2.6600000  0.46779  0.25323  4.18480E+00  3.84915E-09  5.02642E-08
   2.6700000  0.46867  0.25276  4.25685E+00  3.90320E-09  5.10093E-08
   2.6800000  0.46955  0.25229  4.33006E+00  3.95803E-09  5.17658E-08
   2.6900000  0.47042  0.25182  4.40444E+00  4.01365E-09  5.25340E-08
   2.7000000  0.47129  0.25135  4.48002E+00  4.07008E-09  5.33141E-08
   2.7100000  0.47217  0.25089  4.55681E+00  4.12734E-09  5.41063E-08
   2.7200000  0.47304  0.25043  4.63484E+00  4.18544E-09  5.49109E-08
   2.7300000  0.47391  0.24997  4.71414E+00  4.24440E-09  5.57282E-08
   2.7400000  0.47477  0.24951  4.79471E+00  4.30423E-09  5.65583E-08
   2.7500000  0.47564  0.24906  4.87659E+00  4.36495E-09  5.74015E-08
   2.7600000  0.47650  0.24860  4.95980E+00  4.42659E-09  5.82582E-08
   2.7700000  0.47736  0.24815  5.04437E+00  4.48915E-09  5.91285E-08
   2.7800000  0.47823  0.24771  5.13032E+00  4.55265E-09  6.00128E-08
   2.7900000  0.47909  0.24726  5.21767E+00  4.61713E-09  6.09113E-08
   2.8000000  0.47994  0.24682  5.30645E+00  4.68258E-09  6.18243E-08
   2.8100000  0.48080  0.24638  5.39670E+00  4.74905E-09  6.27522E-08
   2.8200000  0.48165  0.24595  5.48842E+00  4.81654E-09  6.36953E-08
   2.8300000  0.48251  0.24551  5.58167E+00  4.88508E-09  6.46538E-08
   2.8400000  0.48336  0.24508  5.67646E+00  4.95468E-09  6.56281E-08
   2.8500000  0.48421  0.24465  5.77282E+00  5.02538E-09  6.66186E-08
   2.8600000  0.48506  0.24422  5.87078E+00  5.09719E-09  6.76255E-08
   2.8700000  0.48591  0.24379  5.97038E+00  5.17014E-09  6.86492E-08
   2.8800000  0.48675  0.24337  6.07164E+00  5.24425E-09  6.96902E-08
   2.8900000  0.48760  0.24295  6.17461E+00  5.31955E-09  7.07487E-08
   2.9000000  0.48844  0.24253  6.27930E+00  5.39606E-09  7.18252E-08
   2.9100000  0.48928  0.24211  6.38576E+00  5.47382E-09  7.29200E-08
   2.9200000  0.49012  0.24170  6.49403E+00  5.55283E-09  7.40336E-08
   2.9300000  0.49096  0.24128  6.60413E+00  5.63314E-09  7.51663E-08
   2.9400000  0.49180  0.24087  6.71611E+00  5.71478E-09  7.63187E-08
   2.9500000  0.49263  0.24046  6.83000E+00  5.79776E-09  7.74910E-08
   2.9600000  0.49347  0.24006  6.94584E+00  5.88213E-09  7.86839E-08
   2.9700000  0.49430  0.23965  7.06367E+00  5.96790E-09  7.98977E-08
   2.9800000  0.49513  0.23925  7.18354E+00  6.05513E-09  8.11330E-08
   2.9900000  0.49596  0.23885  7.30548E+00  6.14382E-09  8.23901E-08
   3.0000000  0.49679  0.23845  7.42954E+00  6.23403E-09  8.36697E-08
   3.0100000  0.49762  0.23806  7.55576E+00  6.32578E-09  8.49723E-08
   3.0200000  0.49844  0.23766  7.68418E+00  6.41911E-09  8.62983E-08
   3.0300000  0.49927  0.23727  7.81486E+00  6.51406E-09  8.76483E-08
   3.0400000  0.50009  0.23688  7.94785E+00  6.61066E-09  8.90229E-08
   3.0500000  0.50091  0.23649  8.08318E+00  6.70896E-09  9.04227E-08
   3.0600000  0.50173  0.23610  8.22092E+00  6.80898E-09  9.18482E-08
   3.0700000  0.50255  0.23572  8.36111E+00  6.91078E-09  9.33001E-08
   3.0800000  0.50337  0.23534  8.50381E+00  7.01438E-09  9.47791E-08
   3.0900000  0.50418  0.23495  8.64907E+00  7.11985E-09  9.62856E-08
   3.1000000  0.50500  0.23458  8.79695E+00  7.22721E-09  9.78205E-08
   3.1100000  0.50581  0.23420  8.94750E+00  7.33653E-09  9.93844E-08
   3.1200000  0.50663  0.23382  9.10079E+00  7.44783E-09  1.00978E-07
   3.1300000  0.50744  0.23345  9.25688E+00  7.56117E-09  1.02602E-07
   3.1400000  0.50825  0.23308  9.41582E+00  7.67661E-09  1.04257E-07
   3.1500000  0.50906  0.23271  9.57770E+00  7.79418E-09  1.05944E-07
   3.1600000  0.50986  0.23234  9.74256E+00  7.91394E-09  1.07664E-07
   3.1700000  0.51067  0.23197  9.91048E+00  8.03595E-09  1.09418E-07
   3.1800000  0.51147  0.23161  1.00815E+01  8.16026E-09  1.11205E-07
   3.1900000  0.51228  0.23124  1.02558E+01  8.28693E-09  1.13028E-07
   3.2000000  0.51308  0.23088  1.04333E+01  8.41601E-09  1.14887E-07
   3.2100000  0.51388  0.23052  1.06142E+01  8.54757E-09  1.16784E-07
   3.2200000  0.51468  0.23016  1.07985E+01  8.68166E-09  1.18718E-07
   3.2300000  0.51548  0.22981  1.09863E+01  8.81835E-09  1.20691E-07
   3.2400000  0.51628  0.22945  1.11778E+01  8.95771E-09  1.22704E-07
   3.2500000  0.51707  0.22910  1.13729E+01  9.09979E-09  1.24757E-07
   3.2600000  0.51787  0.22875  1.15718E+01  9.24468E-09  1.26853E-07
   3.2700000  0.51866  0.22840  1.17745E+01  9.39243E-09  1.28992E-07
   3.2800000  0.51945  0.22805  1.19812E+01  9.54312E-09  1.31175E-07
   3.2900000  0.52025  0.22770  1.21920E+01  9.69682E-09  1.33403E-07
   3.3000000  0.52104  0.22736  1.24069E+01  9.85361E-09  1.35677E-07
   3.3100000  0.52182  0.22701  1.26260E+01  1.00136E-08  1.37999E-07
   3.3200000  0.52261  0.22667  1.28496E+01  1.01768E-08  1.40370E-07
   3.3300000  0.52340  0.22633  1.30775E+01  1.03433E-08  1.42791E-07
   3.3400000  0.52418  0.22599  1.33101E+01  1.05133E-08  1.45263E-07
   3.3500000  0.52497  0.22565  1.35474E+01  1.06867E-08  1.47788E-07
   3.3600000  0.52575  0.22532  1.37895E+01  1.08637E-08  1.50367E-07
   3.3700000  0.52653  0.22498  1.40365E+01  1.10444E-08  1.53001E-07
   3.3800000  0.52731  0.22465  1.42886E+01  1.12289E-08  1.55692E-07
   3.3900000  0.52809  0.22432  1.45459E+01  1.14172E-08  1.58441E-07
   3.4000000  0.52887  0.22399  1.48085E+01  1.16095E-08  1.61250E-07
   3.4100000  0.52965  0.22366  1.50766E+01  1.18059E-08  1.64120E-07
   3.4200000  0.53042  0.22333  1.53503E+01  1.20064E-08  1.67053E-07
   3.4300000  0.53120  0.22301  1.56297E+01  1.22111E-08  1.70050E-07
   3.4400000  0.53197  0.22268  1.59150E+01  1.24202E-08  1.73113E-07
   3.4500000  0.53275  0.22236  1.62065E+01  1.26338E-08  1.76244E-07
   3.4600000  0.53352  0.22204  1.65041E+01  1.28519E-08  1.79444E-07
   3.4700000  0.53429  0.22172  1.68081E+01  1.30748E-08  1.82714E-07
   3.4800000  0.53506  0.22140  1.71187E+01  1.33024E-08  1.86058E-07
   3.4900000  0.53583  0.22108  1.74360E+01  1.35349E-08  1.89476E-07
   3.5000000  0.53659  0.22076  1.77602E+01  1.37724E-08  1.92969E-07
   3.5100000  0.53736  0.22045  1.80916E+01  1.40150E-08  1.96541E-07
   3.5200000  0.53812  0.22014  1.84302E+01  1.42629E-08  2.00193E-07
   3.5300000  0.53889  0.21982  1.87763E+01  1.45162E-08  2.03926E-07
   3.5400000  0.53965  0.21951  1.91301E+01  1.47749E-08  2.07742E-07
   3.5500000  0.54041  0.21920  1.94918E+01  1.50392E-08  2.11644E-07
   3.5600000  0.54117  0.21890  1.98616E+01  1.53091E-08  2.15632E-07
   3.5700000  0.54193  0.21859  2.02397E+01  1.55849E-08  2.19709E-07
   3.5800000  0.54269  0.21828  2.06264E+01  1.58666E-08  2.23877E-07
   3.5900000  0.54345  0.21798  2.10219E+01  1.61543E-08  2.28137E-07
   3.6000000  0.54420  0.21768  2.14264E+01  1.64482E-08  2.32491E-07
   3.6100000  0.54496  0.21737  2.18402E+01  1.67483E-08  2.36940E-07
   3.6200000  0.54571  0.21707  2.22636E+01  1.70547E-08  2.41487E-07
   3.6300000  0.54647  0.21678  2.26967E+01  1.73675E-08  2.46133E-07
   3.6400000  0.54722  0.21648  2.31399E+01  1.76869E-08  2.50880E-07
   3.6500000  0.54797  0.21618  2.35934E+01  1.80128E-08  2.55728E-07
   3.6600000  0.54872  0.21588  2.40575E+01  1.83454E-08  2.60679E-07
   3.6700000  0.54947  0.21559  2.45325E+01  1.86848E-08  2.65734E-07
   3.6800000  0.55022  0.21530  2.50187E+01  1.90309E-08  2.70894E-07
   3.6900000  0.55096  0.21501  2.55163E+01  1.93838E-08  2.76161E-07
   3.7000000  0.55171  0.21471  2.60258E+01  1.97436E-08  2.81534E-07
   3.7100000  0.55246  0.21443  2.65473E+01  2.01102E-08  2.87014E-07
   3.7200000  0.55320  0.21414  2.70812E+01  2.04837E-08  2.92602E-07
   3.7300000  0.55394  0.21385  2.76279E+01  2.08640E-08  2.98297E-07
   3.7400000  0.55469  0.21356  2.81876E+01  2.12511E-08  3.04098E-07
   3.7500000  0.55543  0.21328  2.87607E+01  2.16449E-08  3.10006E-07
   3.7600000  0.55617  0.21299  2.93474E+01  2.20452E-08  3.16019E-07
   3.7700000  0.55691  0.21271  2.99483E+01  2.24521E-08  3.22134E-07
   3.7800000  0.55764  0.21243  3.05635E+01  2.28653E-08  3.28352E-07
   3.7900000  0.55838  0.21215  3.11934E+01  2.32847E-08  3.34668E-07
   3.8000000  0.55912  0.21187  3.18384E+01  2.37099E-08  3.41079E-07
   3.8100000  0.55985  0.21159  3.24988E+01  2.41407E-08  3.47583E-07
   3.8200000  0.56059  0.21132  3.31749E+01  2.45769E-08  3.54175E-07
   3.8300000  0.56132  0.21104  3.38671E+01  2.50180E-08  3.60849E-07
   3.8400000  0.56205  0.21076  3.45757E+01  2.54637E-08  3.67600E-07
   3.8500000  0.56278  0.21049  3.53010E+01  2.59133E-08  3.74421E-07
   3.8600000  0.56351  0.21022  3.60434E+01  2.63666E-08  3.81305E-07
   3.8700000  0.56424  0.20995  3.68031E+01  2.68227E-08  3.88243E-07
   3.8800000  0.56497  0.20968  3.75804E+01  2.72811E-08  3.95225E-07
   3.8900000  0.56570  0.20941  3.83757E+01  2.77410E-08  4.02242E-07
   3.9000000  0.56643  0.20914  3.91891E+01  2.82016E-08  4.09281E-07
   3.9100000  0.56715  0.20887  4.00210E+01  2.86621E-08  4.16329E-07
   3.9200000  0.56788  0.20860  4.08716E+01  2.91214E-08  4.23373E-07
   3.9300000  0.56860  0.20834  4.17410E+01  2.95786E-08  4.30397E-07
   3.9400000  0.56932  0.20807  4.26294E+01  3.00324E-08  4.37385E-07
   3.9500000  0.57005  0.20781  4.35370E+01  3.04817E-08  4.44319E-07
   3.9600000  0.57077  0.20755  4.44638E+01  3.09251E-08  4.51180E-07
   3.9700000  0.57149  0.20728  4.54100E+01  3.13614E-08  4.57947E-07
   3.9800000  0.57221  0.20702  4.63755E+01  3.17890E-08  4.64598E-07
   3.9900000  0.57292  0.20676  4.73604E+01  3.22063E-08  4.71111E-07
   4.0000000  0.57364  0.20651  4.83646E+01  3.26118E-08  4.77462E-07
   4.0100000  0.57436  0.20625  4.93879E+01  3.30038E-08  4.83626E-07
   4.0200000  0.57507  0.20599  5.04302E+01  3.33806E-08  4.89576E-07
   4.0300000  0.57579  0.20574  5.14913E+01  3.37402E-08  4.95286E-07
   4.0400000  0.57650  0.20548  5.25708E+01  3.40810E-08  5.00727E-07
   4.0500000  0.57722  0.20523  5.36684E+01  3.44010E-08  5.05873E-07
   4.0600000  0.57793  0.20497  5.47837E+01  3.46984E-08  5.10694E-07
   4.0700000  0.57864  0.20472  5.59162E+01  3.49714E-08  5.15162E-07
   4.0800000  0.57935  0.20447  5.70652E+01  3.52179E-08  5.19249E-07
   4.0900000  0.58006  0.20422  5.82303E+01  3.54364E-08  5.22928E-07
   4.1000000  0.58077  0.20397  5.94106E+01  3.56250E-08  5.26172E-07
   4.1100000  0.58148  0.20372  6.06053E+01  3.57821E-08  5.28956E-07
   4.1200000  0.58218  0.20348  6.18137E+01  3.59061E-08  5.31254E-07
   4.1300000  0.58289  0.20323  6.30348E+01  3.59956E-08  5.33045E-07
   4.1400000  0.58359  0.20298  6.42676E+01  3.60494E-08  5.34309E-07
   4.1500000  0.58430  0.20274  6.55111E+01  3.60663E-08  5.35028E-07
   4.1600000  0.58500  0.20250  6.67641E+01  3.60455E-08  5.35186E-07
   4.1700000  0.58570  0.20225  6.80255E+01  3.59861E-08  5.34773E-07
   4.1800000  0.58641  0.20201  6.92940E+01  3.58878E-08  5.33778E-07
   4.1900000  0.58711  0.20177  7.05685E+01  3.57503E-08  5.32197E-07
   4.2000000  0.58781  0.20153  7.18476E+01  3.55734E-08  5.30028E-07
   4.2100000  0.58851  0.20129  7.31299E+01  3.53576E-08  5.27272E-07
   4.2200000  0.58921  0.20105  7.44142E+01  3.51032E-08  5.23935E-07
   4.2300000  0.58990  0.20081  7.56991E+01  3.48109E-08  5.20026E-07
   4.2400000  0.59060  0.20058  7.69833E+01  3.44817E-08  5.15558E-07
   4.2500000  0.59130  0.20034  7.82653E+01  3.41168E-08  5.10547E-07
   4.2600000  0.59199  0.20010  7.95439E+01  3.37175E-08  5.05013E-07
   4.2700000  0.59269  0.19987  8.08177E+01  3.32855E-08  4.98977E-07
   4.2800000  0.59338  0.19964  8.20855E+01  3.28225E-08  4.92465E-07
   4.2900000  0.59407  0.19940  8.33459E+01  3.23305E-08  4.85505E-07
   4.3000000  0.59476  0.19917  8.45978E+01  3.18114E-08  4.78127E-07
   4.3100000  0.59546  0.19894  8.58401E+01  3.12676E-08  4.70361E-07
   4.3200000  0.59615  0.19871  8.70715E+01  3.07011E-08  4.62242E-07
   4.3300000  0.59684  0.19848  8.82912E+01  3.01143E-08  4.53802E-07
   4.3400000  0.59752  0.19825  8.94980E+01  2.95096E-08  4.45075E-07
   4.3500000  0.59821  0.19802 -8.93089E+01  2.88893E-08  4.36098E-07
   4.3600000  0.59890  0.19780 -8.81303E+01  2.82557E-08  4.26904E-07
   4.3700000  0.59959  0.19757 -8.69671E+01  2.76111E-08  4.17528E-07
   4.3800000  0.60027  0.19734 -8.58199E+01  2.69578E-08  4.08003E-07
   4.3900000  0.60096  0.19712 -8.46894E+01  2.62979E-08  3.98361E-07
   4.4000000  0.60164  0.19690 -8.35760E+01  2.56336E-08  3.88634E-07
   4.4100000  0.60232  0.19667 -8.24804E+01  2.49667E-08  3.78853E-07
   4.4200000  0.60301  0.19645 -8.14029E+01  2.42993E-08  3.69044E-07
   4.4300000  0.60369  0.19623 -8.03439E+01  2.36330E-08  3.59236E-07
   4.4400000  0.60437  0.19601 -7.93036E+01  2.29695E-08  3.49453E-07
   4.4500000  0.60505  0.19579 -7.82822E+01  2.23104E-08  3.39719E-07
   4.4600000  0.60573  0.19557 -7.72800E+01  2.16569E-08  3.30054E-07
   4.4700000  0.60641  0.19535 -7.62971E+01  2.10104E-08  3.20478E-07
   4.4800000  0.60709  0.19513 -7.53335E+01  2.03721E-08  3.11010E-07
   4.4900000  0.60776  0.19491 -7.43892E+01  1.97428E-08  3.01664E-07
   4.5000000  0.60844  0.19470 -7.34642E+01  1.91236E-08  2.92455E-07
   4.5100000  0.60911  0.19448 -7.25584E+01  1.85152E-08  2.83396E-07
   4.5200000  0.60979  0.19426 -7.16717E+01  1.79184E-08  2.74496E-07
   4.5300000  0.61046  0.19405 -7.08040E+01  1.73335E-08  2.65766E-07
   4.5400000  0.61114  0.19384 -6.99550E+01  1.67613E-08  2.57214E-07
   4.5500000  0.61181  0.19362 -6.91247E+01  1.62020E-08  2.48845E-07
   4.5600000  0.61248  0.19341 -6.83126E+01  1.56559E-08  2.40664E-07
   4.5700000  0.61315  0.19320 -6.75187E+01  1.51233E-08  2.32677E-07
   4.5800000  0.61382  0.19299 -6.67427E+01  1.46043E-08  2.24886E-07
   4.5900000  0.61449  0.19278 -6.59842E+01  1.40991E-08  2.17293E-07
   4.6000000  0.61516  0.19257 -6.52429E+01  1.36077E-08  2.09899E-07
   4.6100000  0.61583  0.19236 -6.45187E+01  1.31300E-08  2.02705E-07
   4.6200000  0.61650  0.19215 -6.38110E+01  1.26660E-08  1.95710E-07
   4.6300000  0.61716  0.19194 -6.31197E+01  1.22156E-08  1.88913E-07
   4.6400000  0.61783  0.19174 -6.24443E+01  1.17787E-08  1.82312E-07
   4.6500000  0.61850  0.19153 -6.17846E+01  1.13551E-08  1.75906E-07
   4.6600000  0.61916  0.19132 -6.11402E+01  1.09446E-08  1.69692E-07
   4.6700000  0.61982  0.19112 -6.05107E+01  1.05470E-08  1.63667E-07
   4.6800000  0.62049  0.19091 -5.98959E+01  1.01620E-08  1.57828E-07
   4.6900000  0.62115  0.19071 -5.92954E+01  9.78944E-09  1.52172E-07
   4.7000000  0.62181  0.19051 -5.87088E+01  9.42901E-09  1.46694E-07
   4.7100000  0.62247  0.19031 -5.81359E+01  9.08043E-09  1.41392E-07
   4.7200000  0.62313  0.19010 -5.75762E+01  8.74342E-09  1.36261E-07
   4.7300000  0.62379  0.18990 -5.70295E+01  8.41769E-09  1.31296E-07
   4.7400000  0.62445  0.18970 -5.64955E+01  8.10294E-09  1.26495E-07
   4.7500000  0.62511  0.18950 -5.59737E+01  7.79888E-09  1.21852E-07
   4.7600000  0.62577  0.18930 -5.54640E+01  7.50520E-09  1.17363E-07
   4.7700000  0.62643  0.18911 -5.49659E+01  7.22160E-09  1.13025E-07
   4.7800000  0.62708  0.18891 -5.44792E+01  6.94779E-09  1.08832E-07
   4.7900000  0.62774  0.18871 -5.40037E+01  6.68346E-09  1.04780E-07
   4.8000000  0.62839  0.18851 -5.35389E+01  6.42834E-09  1.00866E-07
   4.8100000  0.62905  0.18832 -5.30847E+01  6.18214E-09  9.70856E-08
   4.8200000  0.62970  0.18812 -5.26407E+01  5.94456E-09  9.34339E-08
   4.8300000  0.63035  0.18793 -5.22067E+01  5.71533E-09  8.99072E-08
   4.8400000  0.63101  0.18773 -5.17824E+01  5.49418E-09  8.65016E-08
   4.8500000  0.63166  0.18754 -5.13676E+01  5.28084E-09  8.32133E-08
   4.8600000  0.63231  0.18735 -5.09619E+01  5.07506E-09  8.00385E-08
   4.8700000  0.63296  0.18715 -5.05653E+01  4.87658E-09  7.69734E-08
   4.8800000  0.63361  0.18696 -5.01773E+01  4.68516E-09  7.40144E-08
   4.8900000  0.63426  0.18677 -4.97978E+01  4.50055E-09  7.11581E-08
   4.9000000  0.63490  0.18658 -4.94266E+01  4.32252E-09  6.84010E-08
   4.9100000  0.63555  0.18639 -4.90635E+01  4.15084E-09  6.57399E-08
   4.9200000  0.63620  0.18620 -4.87081E+01  3.98530E-09  6.31714E-08
   4.9300000  0.63685  0.18601 -4.83604E+01  3.82569E-09  6.06925E-08
   4.9400000  0.63749  0.18582 -4.80201E+01  3.67179E-09  5.83002E-08
   4.9500000  0.63814  0.18564 -4.76870E+01  3.52342E-09  5.59914E-08
   4.9600000  0.63878  0.18545 -4.73610E+01  3.38037E-09  5.37635E-08
   4.9700000  0.63942  0.18526 -4.70418E+01  3.24246E-09  5.16135E-08
   4.9800000  0.64007  0.18508 -4.67293E+01  3.10952E-09  4.95389E-08
   4.9900000  0.64071  0.18489 -4.64232E+01  2.98136E-09  4.75371E-08
   5.0000000  0.64135  0.18470 -4.61235E+01  2.85782E-09  4.56055E-08
