 #  Energy      k        eta    phase shift cross section  S factor 
 #  (MeV)    (fm^{-1})           (degrees)       (b)       (MeV b)  
   0.0100000  0.02868  4.13012  2.03908E-15  2.17364E-21  4.04821E-12
   0.0200000  0.04056  2.92044  6.88469E-12  3.66074E-18  6.81938E-12
   0.0300000  0.04968  2.38453  3.06035E-10  1.08223E-16  1.04285E-11
   0.0400000  0.05736  2.06506  3.27421E-09  8.66393E-16  1.49559E-11
   0.0500000  0.06414  1.84705  1.76828E-08  3.73465E-15  2.04810E-11
   0.0600000  0.07026  1.68611  6.44251E-08  1.13123E-14  2.70825E-11
   0.0700000  0.07589  1.56104  1.82281E-07  2.73701E-14  3.48388E-11
   0.0800000  0.08113  1.46022  4.33062E-07  5.67652E-14  4.38274E-11
   0.0900000  0.08605  1.37671  9.05931E-07  1.05310E-13  5.41256E-11
   0.1000000  0.09070  1.30606  1.72098E-06  1.79632E-13  6.58102E-11
   0.1100000  0.09513  1.24528  3.03209E-06  2.87043E-13  7.89578E-11
   0.1200000  0.09936  1.19226  5.02926E-06  4.35423E-13  9.36446E-11
   0.1300000  0.10341  1.14549  7.94048E-06  6.33115E-13  1.09947E-10
   0.1400000  0.10732  1.10382  1.20332E-05  8.88839E-13  1.27940E-10
   0.1500000  0.11109  1.06639  1.76156E-05  1.21162E-12  1.47699E-10
   0.1600000  0.11473  1.03253  2.50374E-05  1.61073E-12  1.69301E-10
   0.1700000  0.11826  1.00170  3.46909E-05  2.09561E-12  1.92821E-10
   0.1800000  0.12169  0.97348  4.70110E-05  2.67587E-12  2.18334E-10
   0.1900000  0.12502  0.94751  6.24772E-05  3.36123E-12  2.45914E-10
   0.2000000  0.12827  0.92352  8.16121E-05  4.16145E-12  2.75639E-10
   0.2100000  0.13144  0.90127  1.04983E-04  5.08639E-12  3.07582E-10
   0.2200000  0.13453  0.88054  1.33207E-04  6.14591E-12  3.41820E-10
   0.2300000  0.13755  0.86119  1.66943E-04  7.34990E-12  3.78427E-10
   0.2400000  0.14051  0.84306  2.06865E-04  8.70822E-12  4.17480E-10
   0.2500000  0.14341  0.82602  2.53770E-04  1.02308E-11  4.59053E-10
   0.2600000  0.14625  0.80998  3.08387E-04  1.19273E-11  5.03223E-10
   0.2700000  0.14904  0.79484  3.71635E-04  1.38078E-11  5.50066E-10
   0.2800000  0.15177  0.78052  4.44304E-04  1.58818E-11  5.99657E-10
   0.2900000  0.15446  0.76694  5.27366E-04  1.81593E-11  6.52073E-10
   0.3000000  0.15710  0.75405  6.21875E-04  2.06497E-11  7.07392E-10
   0.3100000  0.15970  0.74179  7.28705E-04  2.33628E-11  7.65688E-10
   0.3200000  0.16225  0.73011  8.48997E-04  2.63082E-11  8.27041E-10
   0.3300000  0.16477  0.71896  9.83870E-04  2.94953E-11  8.91527E-10
   0.3400000  0.16724  0.70831  1.13448E-03  3.29336E-11  9.59224E-10
   0.3500000  0.16969  0.69812  1.30216E-03  3.66326E-11  1.03021E-09
   0.3600000  0.17209  0.68835  1.48793E-03  4.06016E-11  1.10457E-09
   0.3700000  0.17447  0.67899  1.69321E-03  4.48499E-11  1.18237E-09
   0.3800000  0.17681  0.66999  1.91936E-03  4.93869E-11  1.26370E-09
   0.3900000  0.17912  0.66135  2.16777E-03  5.42217E-11  1.34863E-09
   0.4000000  0.18140  0.65303  2.44008E-03  5.93635E-11  1.43726E-09
   0.4100000  0.18365  0.64502  2.73743E-03  6.48214E-11  1.52965E-09
   0.4200000  0.18588  0.63729  3.06156E-03  7.06046E-11  1.62589E-09
   0.4300000  0.18808  0.62984  3.41404E-03  7.67220E-11  1.72607E-09
   0.4400000  0.19026  0.62264  3.79654E-03  8.31829E-11  1.83027E-09
   0.4500000  0.19241  0.61568  4.21107E-03  8.99961E-11  1.93856E-09
   0.4600000  0.19453  0.60895  4.65878E-03  9.71706E-11  2.05104E-09
   0.4700000  0.19663  0.60244  5.14179E-03  1.04715E-10  2.16779E-09
   0.4800000  0.19872  0.59613  5.66192E-03  1.12640E-10  2.28890E-09
   0.4900000  0.20077  0.59002  6.22113E-03  1.20952E-10  2.41446E-09
   0.5000000  0.20281  0.58409  6.82136E-03  1.29661E-10  2.54454E-09
   0.5100000  0.20483  0.57833  7.46465E-03  1.38777E-10  2.67925E-09
   0.5200000  0.20683  0.57274  8.15309E-03  1.48308E-10  2.81867E-09
   0.5300000  0.20881  0.56732  8.88880E-03  1.58262E-10  2.96290E-09
   0.5400000  0.21077  0.56204  9.67401E-03  1.68650E-10  3.11202E-09
   0.5500000  0.21271  0.55691  1.05115E-02  1.79479E-10  3.26613E-09
   0.5600000  0.21464  0.55191  1.14026E-02  1.90760E-10  3.42533E-09
   0.5700000  0.21654  0.54705  1.23500E-02  2.02500E-10  3.58970E-09
   0.5800000  0.21844  0.54231  1.33564E-02  2.14710E-10  3.75936E-09
   0.5900000  0.22031  0.53770  1.44242E-02  2.27398E-10  3.93439E-09
   0.6000000  0.22217  0.53320  1.55561E-02  2.40574E-10  4.11490E-09
   0.6100000  0.22401  0.52881  1.67545E-02  2.54246E-10  4.30100E-09
   0.6200000  0.22584  0.52453  1.80223E-02  2.68424E-10  4.49277E-09
   0.6300000  0.22766  0.52035  1.93622E-02  2.83118E-10  4.69034E-09
   0.6400000  0.22946  0.51626  2.07772E-02  2.98337E-10  4.89380E-09
   0.6500000  0.23124  0.51228  2.22711E-02  3.14090E-10  5.10326E-09
   0.6600000  0.23301  0.50838  2.38449E-02  3.30387E-10  5.31885E-09
   0.6700000  0.23477  0.50457  2.55028E-02  3.47238E-10  5.54066E-09
   0.6800000  0.23652  0.50085  2.72478E-02  3.64653E-10  5.76881E-09
   0.6900000  0.23825  0.49721  2.90834E-02  3.82642E-10  6.00343E-09
   0.7000000  0.23997  0.49364  3.10127E-02  4.01215E-10  6.24463E-09
   0.7100000  0.24168  0.49016  3.30392E-02  4.20382E-10  6.49253E-09
   0.7200000  0.24338  0.48674  3.51664E-02  4.40153E-10  6.74726E-09
   0.7300000  0.24506  0.48339  3.73980E-02  4.60539E-10  7.00894E-09
   0.7400000  0.24673  0.48012  3.97375E-02  4.81552E-10  7.27770E-09
   0.7500000  0.24839  0.47691  4.21889E-02  5.03201E-10  7.55368E-09
   0.7600000  0.25004  0.47376  4.47560E-02  5.25497E-10  7.83701E-09
   0.7700000  0.25168  0.47067  4.74428E-02  5.48453E-10  8.12783E-09
   0.7800000  0.25331  0.46764  5.02534E-02  5.72080E-10  8.42628E-09
   0.7900000  0.25493  0.46467  5.31920E-02  5.96389E-10  8.73251E-09
   0.8000000  0.25654  0.46176  5.62631E-02  6.21392E-10  9.04666E-09
   0.8100000  0.25814  0.45890  5.94709E-02  6.47101E-10  9.36889E-09
   0.8200000  0.25973  0.45610  6.28201E-02  6.73530E-10  9.69934E-09
   0.8300000  0.26131  0.45334  6.63153E-02  7.00690E-10  1.00382E-08
   0.8400000  0.26288  0.45063  6.99636E-02  7.28595E-10  1.03856E-08
   0.8500000  0.26444  0.44797  7.37656E-02  7.57258E-10  1.07417E-08
   0.8600000  0.26599  0.44536  7.77285E-02  7.86693E-10  1.11067E-08
   0.8700000  0.26753  0.44280  8.18576E-02  8.16913E-10  1.14808E-08
   0.8800000  0.26906  0.44027  8.61582E-02  8.47933E-10  1.18642E-08
   0.8900000  0.27059  0.43779  9.06359E-02  8.79768E-10  1.22570E-08
   0.9000000  0.27210  0.43535  9.52963E-02  9.12433E-10  1.26594E-08
   0.9100000  0.27361  0.43295  1.00146E-01  9.45943E-10  1.30717E-08
   0.9200000  0.27511  0.43059  1.05189E-01  9.80314E-10  1.34940E-08
   0.9300000  0.27660  0.42827  1.10434E-01  1.01556E-09  1.39265E-08
   0.9400000  0.27808  0.42599  1.15886E-01  1.05171E-09  1.43695E-08
   0.9500000  0.27956  0.42374  1.21552E-01  1.08876E-09  1.48232E-08
   0.9600000  0.28103  0.42153  1.27439E-01  1.12675E-09  1.52878E-08
   0.9700000  0.28249  0.41935  1.33553E-01  1.16568E-09  1.57635E-08
   0.9800000  0.28394  0.41721  1.39902E-01  1.20558E-09  1.62507E-08
   0.9900000  0.28538  0.41509  1.46493E-01  1.24647E-09  1.67495E-08
   1.0000000  0.28682  0.41301  1.53334E-01  1.28836E-09  1.72602E-08
   1.0100000  0.28825  0.41096  1.60433E-01  1.33128E-09  1.77830E-08
   1.0200000  0.28967  0.40894  1.67798E-01  1.37525E-09  1.83184E-08
   1.0300000  0.29109  0.40695  1.75437E-01  1.42030E-09  1.88664E-08
   1.0400000  0.29250  0.40499  1.83359E-01  1.46644E-09  1.94276E-08
   1.0500000  0.29390  0.40306  1.91574E-01  1.51369E-09  2.00020E-08
   1.0600000  0.29530  0.40115  2.00089E-01  1.56210E-09  2.05902E-08
   1.0700000  0.29669  0.39927  2.08916E-01  1.61167E-09  2.11923E-08
   1.0800000  0.29807  0.39742  2.18067E-01  1.66244E-09  2.18088E-08
   1.0900000  0.29945  0.39559  2.27545E-01  1.71443E-09  2.24400E-08
   1.1000000  0.30082  0.39379  2.37365E-01  1.76767E-09  2.30863E-08
   1.1100000  0.30218  0.39201  2.47537E-01  1.82220E-09  2.37480E-08
   1.1200000  0.30354  0.39026  2.58073E-01  1.87804E-09  2.44255E-08
   1.1300000  0.30489  0.38853  2.68984E-01  1.93522E-09  2.51194E-08
   1.1400000  0.30624  0.38682  2.80284E-01  1.99379E-09  2.58299E-08
   1.1500000  0.30758  0.38514  2.91983E-01  2.05376E-09  2.65576E-08
   1.1600000  0.30892  0.38347  3.04096E-01  2.11519E-09  2.73029E-08
   1.1700000  0.31024  0.38183  3.16635E-01  2.17811E-09  2.80662E-08
   1.1800000  0.31157  0.38021  3.29616E-01  2.24255E-09  2.88482E-08
   1.1900000  0.31288  0.37861  3.43051E-01  2.30856E-09  2.96493E-08
   1.2000000  0.31420  0.37703  3.56958E-01  2.37618E-09  3.04701E-08
   1.2100000  0.31550  0.37547  3.71351E-01  2.44546E-09  3.13111E-08
   1.2200000  0.31680  0.37392  3.86246E-01  2.51644E-09  3.21730E-08
   1.2300000  0.31810  0.37240  4.01660E-01  2.58917E-09  3.30563E-08
   1.2400000  0.31939  0.37090  4.17612E-01  2.66371E-09  3.39618E-08
   1.2500000  0.32068  0.36941  4.34120E-01  2.74010E-09  3.48901E-08
   1.2600000  0.32196  0.36794  4.51201E-01  2.81840E-09  3.58419E-08
   1.2700000  0.32323  0.36649  4.68878E-01  2.89867E-09  3.68179E-08
   1.2800000  0.32450  0.36505  4.87169E-01  2.98097E-09  3.78190E-08
   1.2900000  0.32577  0.36364  5.06097E-01  3.06536E-09  3.88460E-08
   1.3000000  0.32703  0.36224  5.25685E-01  3.15192E-09  3.98997E-08
   1.3100000  0.32828  0.36085  5.45954E-01  3.24071E-09  4.09810E-08
   1.3200000  0.32953  0.35948  5.66933E-01  3.33181E-09  4.20909E-08
   1.3300000  0.33078  0.35813  5.88642E-01  3.42530E-09  4.32304E-08
   1.3400000  0.33202  0.35679  6.11111E-01  3.52125E-09  4.44005E-08
   1.3500000  0.33326  0.35546  6.34367E-01  3.61976E-09  4.56023E-08
   1.3600000  0.33449  0.35415  6.58440E-01  3.72091E-09  4.68370E-08
   1.3700000  0.33572  0.35286  6.83360E-01  3.82480E-09  4.81057E-08
   1.3800000  0.33694  0.35158  7.09159E-01  3.93153E-09  4.94098E-08
   1.3900000  0.33816  0.35031  7.35871E-01  4.04121E-09  5.07507E-08
   1.4000000  0.33937  0.34906  7.63530E-01  4.15396E-09  5.21297E-08
   1.4100000  0.34058  0.34782  7.92173E-01  4.26988E-09  5.35484E-08
   1.4200000  0.34179  0.34659  8.21840E-01  4.38911E-09  5.50083E-08
   1.4300000  0.34299  0.34538  8.52571E-01  4.51177E-09  5.65112E-08
   1.4400000  0.34418  0.34418  8.84408E-01  4.63802E-09  5.80588E-08
   1.4500000  0.34538  0.34299  9.17396E-01  4.76799E-09  5.96530E-08
   1.4600000  0.34657  0.34181  9.51583E-01  4.90185E-09  6.12958E-08
   1.4700000  0.34775  0.34065  9.87018E-01  5.03976E-09  6.29894E-08
   1.4800000  0.34893  0.33949  1.02375E+00  5.18191E-09  6.47360E-08
   1.4900000  0.35011  0.33835  1.06184E+00  5.32848E-09  6.65380E-08
   1.5000000  0.35128  0.33722  1.10135E+00  5.47967E-09  6.83980E-08
   1.5100000  0.35245  0.33610  1.14233E+00  5.63570E-09  7.03186E-08
   1.5200000  0.35362  0.33500  1.18485E+00  5.79680E-09  7.23029E-08
   1.5300000  0.35478  0.33390  1.22898E+00  5.96321E-09  7.43538E-08
   1.5400000  0.35594  0.33281  1.27479E+00  6.13519E-09  7.64747E-08
   1.5500000  0.35709  0.33174  1.32236E+00  6.31303E-09  7.86690E-08
   1.5600000  0.35824  0.33067  1.37178E+00  6.49702E-09  8.09407E-08
   1.5700000  0.35939  0.32962  1.42311E+00  6.68748E-09  8.32937E-08
   1.5800000  0.36053  0.32857  1.47647E+00  6.88475E-09  8.57323E-08
   1.5900000  0.36167  0.32754  1.53195E+00  7.08921E-09  8.82613E-08
   1.6000000  0.36280  0.32651  1.58965E+00  7.30125E-09  9.08855E-08
   1.6100000  0.36393  0.32550  1.64968E+00  7.52129E-09  9.36105E-08
   1.6200000  0.36506  0.32449  1.71216E+00  7.74979E-09  9.64419E-08
   1.6300000  0.36619  0.32350  1.77722E+00  7.98726E-09  9.93861E-08
   1.6400000  0.36731  0.32251  1.84499E+00  8.23422E-09  1.02450E-07
   1.6500000  0.36843  0.32153  1.91562E+00  8.49126E-09  1.05640E-07
   1.6600000  0.36954  0.32056  1.98927E+00  8.75899E-09  1.08966E-07
   1.6700000  0.37065  0.31960  2.06609E+00  9.03811E-09  1.12434E-07
   1.6800000  0.37176  0.31865  2.14627E+00  9.32935E-09  1.16056E-07
   1.6900000  0.37287  0.31770  2.22999E+00  9.63352E-09  1.19840E-07
   1.7000000  0.37397  0.31677  2.31747E+00  9.95148E-09  1.23798E-07
   1.7100000  0.37507  0.31584  2.40892E+00  1.02842E-08  1.27941E-07
   1.7200000  0.37616  0.31492  2.50459E+00  1.06327E-08  1.32284E-07
   1.7300000  0.37725  0.31401  2.60473E+00  1.09982E-08  1.36841E-07
   1.7400000  0.37834  0.31310  2.70964E+00  1.13819E-08  1.41627E-07
   1.7500000  0.37943  0.31221  2.81960E+00  1.17852E-08  1.46660E-07
   1.7600000  0.38051  0.31132  2.93496E+00  1.22096E-08  1.51960E-07
   1.7700000  0.38159  0.31044  3.05607E+00  1.26568E-08  1.57546E-07
   1.7800000  0.38267  0.30957  3.18333E+00  1.31287E-08  1.63444E-07
   1.7900000  0.38374  0.30870  3.31716E+00  1.36273E-08  1.69678E-07
   1.8000000  0.38481  0.30784  3.45804E+00  1.41549E-08  1.76279E-07
   1.8100000  0.38588  0.30699  3.60648E+00  1.47140E-08  1.83277E-07
   1.8200000  0.38694  0.30614  3.76305E+00  1.53077E-08  1.90710E-07
   1.8300000  0.38800  0.30531  3.92837E+00  1.59389E-08  1.98617E-07
   1.8400000  0.38906  0.30448  4.10313E+00  1.66114E-08  2.07045E-07
   1.8500000  0.39012  0.30365  4.28809E+00  1.73291E-08  2.16043E-07
   1.8600000  0.39117  0.30284  4.48410E+00  1.80967E-08  2.25671E-07
   1.8700000  0.39222  0.30202  4.69209E+00  1.89194E-08  2.35992E-07
   1.8800000  0.39327  0.30122  4.91313E+00  1.98030E-08  2.47083E-07
   1.8900000  0.39431  0.30042  5.14837E+00  2.07542E-08  2.59027E-07
   1.9000000  0.39536  0.29963  5.39915E+00  2.17809E-08  2.71923E-07
   1.9100000  0.39639  0.29884  5.66694E+00  2.28918E-08  2.85882E-07
   1.9200000  0.39743  0.29807  5.95343E+00  2.40972E-08  3.01034E-07
   1.9300000  0.39846  0.29729  6.26052E+00  2.54091E-08  3.17530E-07
   1.9400000  0.39950  0.29653  6.59039E+00  2.68413E-08  3.35544E-07
   1.9500000  0.40052  0.29576  6.94551E+00  2.84101E-08  3.55283E-07
   1.9600000  0.40155  0.29501  7.32874E+00  3.01345E-08  3.76987E-07
   1.9700000  0.40257  0.29426  7.74337E+00  3.20373E-08  4.00942E-07
   1.9800000  0.40359  0.29351  8.19321E+00  3.41454E-08  4.27491E-07
   1.9900000  0.40461  0.29278  8.68273E+00  3.64912E-08  4.57041E-07
   2.0000000  0.40563  0.29204  9.21715E+00  3.91135E-08  4.90085E-07
   2.0100000  0.40664  0.29132  9.80262E+00  4.20597E-08  5.27221E-07
   2.0200000  0.40765  0.29059  1.04465E+01  4.53877E-08  5.69180E-07
   2.0300000  0.40866  0.28988  1.11575E+01  4.91688E-08  6.16865E-07
   2.0400000  0.40966  0.28917  1.19462E+01  5.34916E-08  6.71396E-07
   2.0500000  0.41066  0.28846  1.28253E+01  5.84670E-08  7.34178E-07
   2.0600000  0.41167  0.28776  1.38107E+01  6.42354E-08  8.06984E-07
   2.0700000  0.41266  0.28706  1.49216E+01  7.09755E-08  8.92078E-07
   2.0800000  0.41366  0.28637  1.61823E+01  7.89172E-08  9.92371E-07
   2.0900000  0.41465  0.28569  1.76232E+01  8.83588E-08  1.11164E-06
   2.1000000  0.41564  0.28501  1.92831E+01  9.96895E-08  1.25481E-06
   2.1100000  0.41663  0.28433  2.12117E+01  1.13420E-07  1.42836E-06
   2.1200000  0.41762  0.28366  2.34737E+01  1.30221E-07  1.64078E-06
   2.1300000  0.41860  0.28299  2.61534E+01  1.50966E-07  1.90314E-06
   2.1400000  0.41958  0.28233  2.93616E+01  1.76760E-07  2.22949E-06
   2.1500000  0.42056  0.28167  3.32427E+01  2.08930E-07  2.63665E-06
   2.1600000  0.42154  0.28102  3.79821E+01  2.48840E-07  3.14199E-06
   2.1700000  0.42251  0.28037  4.38062E+01  2.97317E-07  3.75615E-06
   2.1800000  0.42349  0.27973  5.09625E+01  3.53275E-07  4.46556E-06
   2.1900000  0.42446  0.27909  5.96516E+01  4.11220E-07  5.20091E-06
   2.2000000  0.42542  0.27845  6.98854E+01  4.58773E-07  5.80562E-06
   2.2100000  0.42639  0.27782  8.13046E+01  4.78674E-07  6.06093E-06
   2.2200000  0.42735  0.27720 -8.68758E+01  4.59447E-07  5.82084E-06
   2.2300000  0.42831  0.27657 -7.56143E+01  4.06358E-07  5.15126E-06
   2.2400000  0.42927  0.27596 -6.56318E+01  3.37420E-07  4.27989E-06
   2.2500000  0.43023  0.27534 -5.72136E+01  2.69585E-07  3.42150E-06
   2.2600000  0.43119  0.27473 -5.03023E+01  2.11588E-07  2.68704E-06
   2.2700000  0.43214  0.27413 -4.46813E+01  1.65396E-07  2.10171E-06
   2.2800000  0.43309  0.27352 -4.01040E+01  1.29767E-07  1.64998E-06
   2.2900000  0.43404  0.27293 -3.63501E+01  1.02576E-07  1.30506E-06
   2.3000000  0.43499  0.27233 -3.32417E+01  8.18100E-08  1.04150E-06
   2.3100000  0.43593  0.27174 -3.06406E+01  6.58461E-08  8.38801E-07
   2.3200000  0.43687  0.27116 -2.84411E+01  5.34600E-08  6.81449E-07
   2.3300000  0.43781  0.27057 -2.65627E+01  4.37507E-08  5.58043E-07
   2.3400000  0.43875  0.26999 -2.49437E+01  3.60604E-08  4.60250E-07
   2.3500000  0.43969  0.26942 -2.35362E+01  2.99082E-08  3.81977E-07
   2.3600000  0.44062  0.26885 -2.23033E+01  2.49403E-08  3.18737E-07
   2.3700000  0.44156  0.26828 -2.12155E+01  2.08936E-08  2.67197E-07
   2.3800000  0.44249  0.26772 -2.02497E+01  1.75713E-08  2.24859E-07
   2.3900000  0.44341  0.26716 -1.93872E+01  1.48239E-08  1.89828E-07
   2.4000000  0.44434  0.26660 -1.86128E+01  1.25372E-08  1.60655E-07
   2.4100000  0.44527  0.26604 -1.79142E+01  1.06230E-08  1.36217E-07
   2.4200000  0.44619  0.26549 -1.72811E+01  9.01215E-09  1.15641E-07
   2.4300000  0.44711  0.26495 -1.67050E+01  7.65046E-09  9.82357E-08
   2.4400000  0.44803  0.26440 -1.61789E+01  6.49477E-09  8.34538E-08
   2.4500000  0.44895  0.26386 -1.56967E+01  5.51055E-09  7.08565E-08
   2.4600000  0.44986  0.26333 -1.52534E+01  4.66992E-09  6.00895E-08
   2.4700000  0.45077  0.26279 -1.48447E+01  3.95025E-09  5.08650E-08
   2.4800000  0.45169  0.26226 -1.44667E+01  3.33299E-09  4.29473E-08
   2.4900000  0.45260  0.26174 -1.41163E+01  2.80289E-09  3.61425E-08
   2.5000000  0.45350  0.26121 -1.37908E+01  2.34732E-09  3.02897E-08
   2.5100000  0.45441  0.26069 -1.34876E+01  1.95575E-09  2.52550E-08
   2.5200000  0.45531  0.26017 -1.32048E+01  1.61937E-09  2.09264E-08
   2.5300000  0.45622  0.25966 -1.29403E+01  1.33076E-09  1.72094E-08
   2.5400000  0.45712  0.25915 -1.26926E+01  1.08367E-09  1.40242E-08
   2.5500000  0.45802  0.25864 -1.24601E+01  8.72759E-10  1.13030E-08
   2.5600000  0.45891  0.25813 -1.22417E+01  6.93502E-10  8.98808E-09
   2.5700000  0.45981  0.25763 -1.20362E+01  5.42011E-10  7.02990E-09
   2.5800000  0.46070  0.25713 -1.18425E+01  4.14951E-10  5.38592E-09
   2.5900000  0.46159  0.25663 -1.16597E+01  3.09443E-10  4.01947E-09
   2.6000000  0.46248  0.25614 -1.14869E+01  2.23000E-10  2.89881E-09
   2.6100000  0.46337  0.25565 -1.13235E+01  1.53461E-10  1.99636E-09
   2.6200000  0.46426  0.25516 -1.11688E+01  9.89459E-11  1.28815E-09
   2.6300000  0.46515  0.25467 -1.10221E+01  5.78127E-11  7.53220E-10
   2.6400000  0.46603  0.25419 -1.08828E+01  2.86247E-11  3.73224E-10
   2.6500000  0.46691  0.25371 -1.07506E+01  1.01205E-11  1.32058E-10
   2.6600000  0.46779  0.25323 -1.06248E+01  1.19057E-12  1.55471E-11
   2.6700000  0.46867  0.25276 -1.05052E+01  8.56192E-13  1.11892E-11
   2.6800000  0.46955  0.25229 -1.03912E+01  8.25235E-12  1.07930E-10
   2.6900000  0.47042  0.25182 -1.02826E+01  2.26128E-11  2.95975E-10
   2.7000000  0.47129  0.25135 -1.01790E+01  4.32573E-11  5.66628E-10
   2.7100000  0.47217  0.25089 -1.00802E+01  6.95810E-11  9.12155E-10
   2.7200000  0.47304  0.25043 -9.98575E+00  1.01045E-10  1.32566E-09
   2.7300000  0.47391  0.24997 -9.89552E+00  1.37168E-10  1.80099E-09
   2.7400000  0.47477  0.24951 -9.80923E+00  1.77520E-10  2.33264E-09
   2.7500000  0.47564  0.24906 -9.72668E+00  2.21715E-10  2.91568E-09
   2.7600000  0.47650  0.24860 -9.64766E+00  2.69409E-10  3.54568E-09
   2.7700000  0.47736  0.24815 -9.57197E+00  3.20290E-10  4.21868E-09
   2.7800000  0.47823  0.24771 -9.49945E+00  3.74079E-10  4.93109E-09
   2.7900000  0.47909  0.24726 -9.42993E+00  4.30525E-10  5.67969E-09
   2.8000000  0.47994  0.24682 -9.36325E+00  4.89400E-10  6.46157E-09
   2.8100000  0.48080  0.24638 -9.29928E+00  5.50500E-10  7.27412E-09
   2.8200000  0.48165  0.24595 -9.23788E+00  6.13640E-10  8.11495E-09
   2.8300000  0.48251  0.24551 -9.17893E+00  6.78650E-10  8.98191E-09
   2.8400000  0.48336  0.24508 -9.12231E+00  7.45380E-10  9.87307E-09
   2.8500000  0.48421  0.24465 -9.06791E+00  8.13692E-10  1.07866E-08
   2.8600000  0.48506  0.24422 -9.01562E+00  8.83459E-10  1.17210E-08
   2.8700000  0.48591  0.24379 -8.96535E+00  9.54569E-10  1.26748E-08
   2.8800000  0.48675  0.24337 -8.91701E+00  1.02692E-09  1.36466E-08
   2.8900000  0.48760  0.24295 -8.87052E+00  1.10041E-09  1.46352E-08
   2.9000000  0.48844  0.24253 -8.82579E+00  1.17496E-09  1.56395E-08
   2.9100000  0.48928  0.24211 -8.78275E+00  1.25049E-09  1.66585E-08
   2.9200000  0.49012  0.24170 -8.74132E+00  1.32693E-09  1.76914E-08
   2.9300000  0.49096  0.24128 -8.70144E+00  1.40421E-09  1.87372E-08
   2.9400000  0.49180  0.24087 -8.66304E+00  1.48228E-09  1.97952E-08
   2.9500000  0.49263  0.24046 -8.62606E+00  1.56107E-09  2.08648E-08
   2.9600000  0.49347  0.24006 -8.59045E+00  1.64054E-09  2.19452E-08
   2.9700000  0.49430  0.23965 -8.55615E+00  1.72065E-09  2.30359E-08
   2.9800000  0.49513  0.23925 -8.52311E+00  1.80135E-09  2.41363E-08
   2.9900000  0.49596  0.23885 -8.49128E+00  1.88259E-09  2.52460E-08
   3.0000000  0.49679  0.23845 -8.46062E+00  1.96436E-09  2.63646E-08
   3.0100000  0.49762  0.23806 -8.43107E+00  2.04661E-09  2.74915E-08
   3.0200000  0.49844  0.23766 -8.40260E+00  2.12932E-09  2.86265E-08
   3.0300000  0.49927  0.23727 -8.37517E+00  2.21246E-09  2.97691E-08
   3.0400000  0.50009  0.23688 -8.34873E+00  2.29599E-09  3.09191E-08
   3.0500000  0.50091  0.23649 -8.32326E+00  2.37991E-09  3.20763E-08
   3.0600000  0.50173  0.23610 -8.29872E+00  2.46419E-09  3.32402E-08
   3.0700000  0.50255  0.23572 -8.27508E+00  2.54881E-09  3.44107E-08
   3.0800000  0.50337  0.23534 -8.25230E+00  2.63375E-09  3.55875E-08
   3.0900000  0.50418  0.23495 -8.23035E+00  2.71900E-09  3.67705E-08
   3.1000000  0.50500  0.23458 -8.20921E+00  2.80454E-09  3.79595E-08
   3.1100000  0.50581  0.23420 -8.18884E+00  2.89036E-09  3.91543E-08
   3.1200000  0.50663  0.23382 -8.16923E+00  2.97644E-09  4.03546E-08
   3.1300000  0.50744  0.23345 -8.15035E+00  3.06277E-09  4.15605E-08
   3.1400000  0.50825  0.23308 -8.13217E+00  3.14935E-09  4.27718E-08
   3.1500000  0.50906  0.23271 -8.11467E+00  3.23616E-09  4.39882E-08
   3.1600000  0.50986  0.23234 -8.09782E+00  3.32319E-09  4.52099E-08
   3.1700000  0.51067  0.23197 -8.08162E+00  3.41044E-09  4.64365E-08
   3.1800000  0.51147  0.23161 -8.06603E+00  3.49789E-09  4.76681E-08
   3.1900000  0.51228  0.23124 -8.05103E+00  3.58555E-09  4.89046E-08
   3.2000000  0.51308  0.23088 -8.03662E+00  3.67340E-09  5.01458E-08
   3.2100000  0.51388  0.23052 -8.02277E+00  3.76144E-09  5.13918E-08
   3.2200000  0.51468  0.23016 -8.00946E+00  3.84966E-09  5.26424E-08
   3.2300000  0.51548  0.22981 -7.99668E+00  3.93807E-09  5.38976E-08
   3.2400000  0.51628  0.22945 -7.98441E+00  4.02664E-09  5.51574E-08
   3.2500000  0.51707  0.22910 -7.97263E+00  4.11539E-09  5.64216E-08
   3.2600000  0.51787  0.22875 -7.96134E+00  4.20430E-09  5.76904E-08
   3.2700000  0.51866  0.22840 -7.95051E+00  4.29338E-09  5.89635E-08
   3.2800000  0.51945  0.22805 -7.94014E+00  4.38262E-09  6.02411E-08
   3.2900000  0.52025  0.22770 -7.93020E+00  4.47201E-09  6.15231E-08
   3.3000000  0.52104  0.22736 -7.92070E+00  4.56156E-09  6.28093E-08
   3.3100000  0.52182  0.22701 -7.91161E+00  4.65126E-09  6.40999E-08
   3.3200000  0.52261  0.22667 -7.90292E+00  4.74111E-09  6.53949E-08
   3.3300000  0.52340  0.22633 -7.89463E+00  4.83111E-09  6.66941E-08
   3.3400000  0.52418  0.22599 -7.88672E+00  4.92125E-09  6.79975E-08
   3.3500000  0.52497  0.22565 -7.87918E+00  5.01154E-09  6.93053E-08
   3.3600000  0.52575  0.22532 -7.87200E+00  5.10198E-09  7.06173E-08
   3.3700000  0.52653  0.22498 -7.86517E+00  5.19256E-09  7.19335E-08
   3.3800000  0.52731  0.22465 -7.85869E+00  5.28328E-09  7.32540E-08
   3.3900000  0.52809  0.22432 -7.85254E+00  5.37414E-09  7.45787E-08
   3.4000000  0.52887  0.22399 -7.84671E+00  5.46514E-09  7.59076E-08
   3.4100000  0.52965  0.22366 -7.84119E+00  5.55628E-09  7.72408E-08
   3.4200000  0.53042  0.22333 -7.83598E+00  5.64755E-09  7.85782E-08
   3.4300000  0.53120  0.22301 -7.83107E+00  5.73897E-09  7.99199E-08
   3.4400000  0.53197  0.22268 -7.82646E+00  5.83053E-09  8.12658E-08
   3.4500000  0.53275  0.22236 -7.82212E+00  5.92222E-09  8.26159E-08
   3.4600000  0.53352  0.22204 -7.81806E+00  6.01405E-09  8.39703E-08
   3.4700000  0.53429  0.22172 -7.81428E+00  6.10601E-09  8.53290E-08
   3.4800000  0.53506  0.22140 -7.81075E+00  6.19812E-09  8.66919E-08
   3.4900000  0.53583  0.22108 -7.80748E+00  6.29036E-09  8.80590E-08
   3.5000000  0.53659  0.22076 -7.80446E+00  6.38273E-09  8.94305E-08
   3.5100000  0.53736  0.22045 -7.80168E+00  6.47525E-09  9.08062E-08
   3.5200000  0.53812  0.22014 -7.79914E+00  6.56790E-09  9.21862E-08
   3.5300000  0.53889  0.21982 -7.79683E+00  6.66068E-09  9.35705E-08
   3.5400000  0.53965  0.21951 -7.79475E+00  6.75361E-09  9.49592E-08
   3.5500000  0.54041  0.21920 -7.79288E+00  6.84667E-09  9.63521E-08
   3.5600000  0.54117  0.21890 -7.79124E+00  6.93987E-09  9.77494E-08
   3.5700000  0.54193  0.21859 -7.78980E+00  7.03320E-09  9.91510E-08
   3.5800000  0.54269  0.21828 -7.78856E+00  7.12668E-09  1.00557E-07
   3.5900000  0.54345  0.21798 -7.78753E+00  7.22029E-09  1.01967E-07
   3.6000000  0.54420  0.21768 -7.78669E+00  7.31404E-09  1.03382E-07
   3.6100000  0.54496  0.21737 -7.78604E+00  7.40793E-09  1.04801E-07
   3.6200000  0.54571  0.21707 -7.78558E+00  7.50196E-09  1.06225E-07
   3.6300000  0.54647  0.21678 -7.78530E+00  7.59612E-09  1.07653E-07
   3.6400000  0.54722  0.21648 -7.78520E+00  7.69043E-09  1.09085E-07
   3.6500000  0.54797  0.21618 -7.78527E+00  7.78488E-09  1.10522E-07
   3.6600000  0.54872  0.21588 -7.78551E+00  7.87946E-09  1.11963E-07
   3.6700000  0.54947  0.21559 -7.78591E+00  7.97419E-09  1.13409E-07
   3.6800000  0.55022  0.21530 -7.78648E+00  8.06906E-09  1.14859E-07
   3.6900000  0.55096  0.21501 -7.78720E+00  8.16406E-09  1.16313E-07
   3.7000000  0.55171  0.21471 -7.78808E+00  8.25921E-09  1.17772E-07
   3.7100000  0.55246  0.21443 -7.78911E+00  8.35451E-09  1.19236E-07
   3.7200000  0.55320  0.21414 -7.79029E+00  8.44994E-09  1.20704E-07
   3.7300000  0.55394  0.21385 -7.79161E+00  8.54552E-09  1.22177E-07
   3.7400000  0.55469  0.21356 -7.79307E+00  8.64123E-09  1.23654E-07
   3.7500000  0.55543  0.21328 -7.79467E+00  8.73710E-09  1.25136E-07
   3.7600000  0.55617  0.21299 -7.79641E+00  8.83310E-09  1.26622E-07
   3.7700000  0.55691  0.21271 -7.79827E+00  8.92925E-09  1.28113E-07
   3.7800000  0.55764  0.21243 -7.80027E+00  9.02555E-09  1.29609E-07
   3.7900000  0.55838  0.21215 -7.80239E+00  9.12198E-09  1.31109E-07
   3.8000000  0.55912  0.21187 -7.80463E+00  9.21857E-09  1.32614E-07
   3.8100000  0.55985  0.21159 -7.80700E+00  9.31529E-09  1.34124E-07
   3.8200000  0.56059  0.21132 -7.80948E+00  9.41217E-09  1.35638E-07
   3.8300000  0.56132  0.21104 -7.81208E+00  9.50919E-09  1.37156E-07
   3.8400000  0.56205  0.21076 -7.81479E+00  9.60635E-09  1.38680E-07
   3.8500000  0.56278  0.21049 -7.81761E+00  9.70366E-09  1.40208E-07
   3.8600000  0.56351  0.21022 -7.82054E+00  9.80112E-09  1.41741E-07
   3.8700000  0.56424  0.20995 -7.82358E+00  9.89873E-09  1.43278E-07
   3.8800000  0.56497  0.20968 -7.82672E+00  9.99648E-09  1.44821E-07
   3.8900000  0.56570  0.20941 -7.82996E+00  1.00944E-08  1.46368E-07
   3.9000000  0.56643  0.20914 -7.83330E+00  1.01924E-08  1.47919E-07
   3.9100000  0.56715  0.20887 -7.83673E+00  1.02906E-08  1.49476E-07
   3.9200000  0.56788  0.20860 -7.84027E+00  1.03890E-08  1.51037E-07
   3.9300000  0.56860  0.20834 -7.84389E+00  1.04875E-08  1.52603E-07
   3.9400000  0.56932  0.20807 -7.84761E+00  1.05861E-08  1.54174E-07
   3.9500000  0.57005  0.20781 -7.85141E+00  1.06849E-08  1.55749E-07
   3.9600000  0.57077  0.20755 -7.85530E+00  1.07838E-08  1.57330E-07
   3.9700000  0.57149  0.20728 -7.85928E+00  1.08829E-08  1.58915E-07
   3.9800000  0.57221  0.20702 -7.86334E+00  1.09822E-08  1.60505E-07
   3.9900000  0.57292  0.20676 -7.86748E+00  1.10815E-08  1.62100E-07
   4.0000000  0.57364  0.20651 -7.87170E+00  1.11811E-08  1.63700E-07
   4.0100000  0.57436  0.20625 -7.87600E+00  1.12808E-08  1.65304E-07
   4.0200000  0.57507  0.20599 -7.88038E+00  1.13806E-08  1.66914E-07
   4.0300000  0.57579  0.20574 -7.88483E+00  1.14806E-08  1.68528E-07
   4.0400000  0.57650  0.20548 -7.88936E+00  1.15807E-08  1.70147E-07
   4.0500000  0.57722  0.20523 -7.89396E+00  1.16810E-08  1.71771E-07
   4.0600000  0.57793  0.20497 -7.89862E+00  1.17815E-08  1.73400E-07
   4.0700000  0.57864  0.20472 -7.90336E+00  1.18821E-08  1.75034E-07
   4.0800000  0.57935  0.20447 -7.90817E+00  1.19828E-08  1.76673E-07
   4.0900000  0.58006  0.20422 -7.91304E+00  1.20837E-08  1.78317E-07
   4.1000000  0.58077  0.20397 -7.91797E+00  1.21847E-08  1.79966E-07
   4.1100000  0.58148  0.20372 -7.92297E+00  1.22859E-08  1.81619E-07
   4.1200000  0.58218  0.20348 -7.92803E+00  1.23873E-08  1.83278E-07
   4.1300000  0.58289  0.20323 -7.93316E+00  1.24888E-08  1.84941E-07
   4.1400000  0.58359  0.20298 -7.93834E+00  1.25904E-08  1.86610E-07
   4.1500000  0.58430  0.20274 -7.94358E+00  1.26922E-08  1.88284E-07
   4.1600000  0.58500  0.20250 -7.94888E+00  1.27942E-08  1.89962E-07
   4.1700000  0.58570  0.20225 -7.95423E+00  1.28963E-08  1.91646E-07
   4.1800000  0.58641  0.20201 -7.95964E+00  1.29986E-08  1.93334E-07
   4.1900000  0.58711  0.20177 -7.96510E+00  1.31010E-08  1.95028E-07
   4.2000000  0.58781  0.20153 -7.97062E+00  1.32035E-08  1.96726E-07
   4.2100000  0.58851  0.20129 -7.97618E+00  1.33062E-08  1.98430E-07
   4.2200000  0.58921  0.20105 -7.98180E+00  1.34091E-08  2.00139E-07
   4.2300000  0.58990  0.20081 -7.98747E+00  1.35121E-08  2.01852E-07
   4.2400000  0.59060  0.20058 -7.99318E+00  1.36153E-08  2.03571E-07
   4.2500000  0.59130  0.20034 -7.99894E+00  1.37186E-08  2.05295E-07
   4.2600000  0.59199  0.20010 -8.00475E+00  1.38221E-08  2.07024E-07
   4.2700000  0.59269  0.19987 -8.01060E+00  1.39257E-08  2.08758E-07
   4.2800000  0.59338  0.19964 -8.01650E+00  1.40295E-08  2.10497E-07
   4.2900000  0.59407  0.19940 -8.02244E+00  1.41334E-08  2.12241E-07
   4.3000000  0.59476  0.19917 -8.02843E+00  1.42375E-08  2.13990E-07
   4.3100000  0.59546  0.19894 -8.03445E+00  1.43417E-08  2.15744E-07
   4.3200000  0.59615  0.19871 -8.04052E+00  1.44461E-08  2.17504E-07
   4.3300000  0.59684  0.19848 -8.04662E+00  1.45506E-08  2.19268E-07
   4.3400000  0.59752  0.19825 -8.05277E+00  1.46553E-08  2.21038E-07
   4.3500000  0.59821  0.19802 -8.05895E+00  1.47602E-08  2.22812E-07
   4.3600000  0.59890  0.19780 -8.06517E+00  1.48652E-08  2.24592E-07
   4.3700000  0.59959  0.19757 -8.07143E+00  1.49703E-08  2.26377E-07
   4.3800000  0.60027  0.19734 -8.07772E+00  1.50756E-08  2.28167E-07
   4.3900000  0.60096  0.19712 -8.08405E+00  1.51810E-08  2.29963E-07
   4.4000000  0.60164  0.19690 -8.09042E+00  1.52866E-08  2.31763E-07
   4.4100000  0.60232  0.19667 -8.09681E+00  1.53924E-08  2.33569E-07
   4.4200000  0.60301  0.19645 -8.10324E+00  1.54983E-08  2.35379E-07
   4.4300000  0.60369  0.19623 -8.10970E+00  1.56043E-08  2.37195E-07
   4.4400000  0.60437  0.19601 -8.11619E+00  1.57105E-08  2.39016E-07
   4.4500000  0.60505  0.19579 -8.12272E+00  1.58169E-08  2.40842E-07
   4.4600000  0.60573  0.19557 -8.12927E+00  1.59234E-08  2.42674E-07
   4.4700000  0.60641  0.19535 -8.13585E+00  1.60300E-08  2.44510E-07
   4.4800000  0.60709  0.19513 -8.14247E+00  1.61368E-08  2.46352E-07
   4.4900000  0.60776  0.19491 -8.14911E+00  1.62437E-08  2.48199E-07
   4.5000000  0.60844  0.19470 -8.15577E+00  1.63508E-08  2.50051E-07
   4.5100000  0.60911  0.19448 -8.16247E+00  1.64581E-08  2.51908E-07
   4.5200000  0.60979  0.19426 -8.16919E+00  1.65655E-08  2.53771E-07
   4.5300000  0.61046  0.19405 -8.17593E+00  1.66730E-08  2.55639E-07
   4.5400000  0.61114  0.19384 -8.18271E+00  1.67807E-08  2.57512E-07
   4.5500000  0.61181  0.19362 -8.18950E+00  1.68885E-08  2.59390E-07
   4.5600000  0.61248  0.19341 -8.19632E+00  1.69965E-08  2.61273E-07
   4.5700000  0.61315  0.19320 -8.20316E+00  1.71047E-08  2.63162E-07
   4.5800000  0.61382  0.19299 -8.21003E+00  1.72130E-08  2.65055E-07
   4.5900000  0.61449  0.19278 -8.21692E+00  1.73214E-08  2.66955E-07
   4.6000000  0.61516  0.19257 -8.22383E+00  1.74300E-08  2.68859E-07
   4.6100000  0.61583  0.19236 -8.23076E+00  1.75387E-08  2.70768E-07
   4.6200000  0.61650  0.19215 -8.23771E+00  1.76476E-08  2.72683E-07
   4.6300000  0.61716  0.19194 -8.24469E+00  1.77566E-08  2.74603E-07
   4.6400000  0.61783  0.19174 -8.25168E+00  1.78657E-08  2.76528E-07
   4.6500000  0.61850  0.19153 -8.25869E+00  1.79751E-08  2.78459E-07
   4.6600000  0.61916  0.19132 -8.26572E+00  1.80845E-08  2.80394E-07
   4.6700000  0.61982  0.19112 -8.27277E+00  1.81941E-08  2.82335E-07
   4.6800000  0.62049  0.19091 -8.27984E+00  1.83039E-08  2.84281E-07
   4.6900000  0.62115  0.19071 -8.28692E+00  1.84138E-08  2.86233E-07
   4.7000000  0.62181  0.19051 -8.29403E+00  1.85238E-08  2.88189E-07
   4.7100000  0.62247  0.19031 -8.30114E+00  1.86340E-08  2.90151E-07
   4.7200000  0.62313  0.19010 -8.30828E+00  1.87443E-08  2.92119E-07
   4.7300000  0.62379  0.18990 -8.31543E+00  1.88548E-08  2.94091E-07
   4.7400000  0.62445  0.18970 -8.32259E+00  1.89654E-08  2.96069E-07
   4.7500000  0.62511  0.18950 -8.32978E+00  1.90762E-08  2.98052E-07
   4.7600000  0.62577  0.18930 -8.33697E+00  1.91871E-08  3.00040E-07
   4.7700000  0.62643  0.18911 -8.34418E+00  1.92981E-08  3.02034E-07
   4.7800000  0.62708  0.18891 -8.35140E+00  1.94093E-08  3.04032E-07
   4.7900000  0.62774  0.18871 -8.35864E+00  1.95207E-08  3.06036E-07
   4.8000000  0.62839  0.18851 -8.36589E+00  1.96322E-08  3.08046E-07
   4.8100000  0.62905  0.18832 -8.37315E+00  1.97438E-08  3.10060E-07
   4.8200000  0.62970  0.18812 -8.38043E+00  1.98555E-08  3.12080E-07
   4.8300000  0.63035  0.18793 -8.38772E+00  1.99674E-08  3.14106E-07
   4.8400000  0.63101  0.18773 -8.39501E+00  2.00795E-08  3.16136E-07
   4.8500000  0.63166  0.18754 -8.40232E+00  2.01917E-08  3.18172E-07
   4.8600000  0.63231  0.18735 -8.40964E+00  2.03040E-08  3.20213E-07
   4.8700000  0.63296  0.18715 -8.41698E+00  2.04165E-08  3.22259E-07
   4.8800000  0.63361  0.18696 -8.42432E+00  2.05291E-08  3.24311E-07
   4.8900000  0.63426  0.18677 -8.43167E+00  2.06418E-08  3.26368E-07
   4.9000000  0.63490  0.18658 -8.43903E+00  2.07547E-08  3.28430E-07
   4.9100000  0.63555  0.18639 -8.44640E+00  2.08677E-08  3.30497E-07
   4.9200000  0.63620  0.18620 -8.45378E+00  2.09809E-08  3.32570E-07
   4.9300000  0.63685  0.18601 -8.46117E+00  2.10942E-08  3.34648E-07
   4.9400000  0.63749  0.18582 -8.46857E+00  2.12076E-08  3.36731E-07
   4.9500000  0.63814  0.18564 -8.47597E+00  2.13212E-08  3.38820E-07
   4.9600000  0.63878  0.18545 -8.48339E+00  2.14349E-08  3.40914E-07
   4.9700000  0.63942  0.18526 -8.49081E+00  2.15487E-08  3.43013E-07
   4.9800000  0.64007  0.18508 -8.49824E+00  2.16627E-08  3.45117E-07
   4.9900000  0.64071  0.18489 -8.50567E+00  2.17768E-08  3.47227E-07
   5.0000000  0.64135  0.18470 -8.51311E+00  2.18911E-08  3.49342E-07
